# =================================================================================================================================================================================================================================================================================================================================================================================================================================
# TIME     FASTF      PCOOL      TCOOL      GKL        PITCH      Q1         Q2         Q3         Q4         Q5         Q6         Q7         Q8         Q9         Q10        Q11        Q12        Q13        Q14        Q15        Q16        Q17        Q18        Q19        Q20        Q21        Q22        Q23        Q24        Q25        Q26        Q27        Q28        Q29        Q30        Q31        Q32       
# (h)      (n/cmWs)   (MPa)      (Celsius)  (kg/s)     (mm)       (kW/m)     (kW/m)     (kW/m)     (kW/m)     (kW/m)     (kW/m)     (kW/m)     (kW/m)     (kW/m)     (kW/m)     (kW/m)     (kW/m)     (kW/m)     (kW/m)     (kW/m)     (kW/m)     (kW/m)     (kW/m)     (kW/m)     (kW/m)     (kW/m)     (kW/m)     (kW/m)     (kW/m)     (kW/m)     (kW/m)     (kW/m)     (kW/m)     (kW/m)     (kW/m)     (kW/m)     (kW/m)    
# =================================================================================================================================================================================================================================================================================================================================================================================================================================
0          3.498e+12  15.6       291.5      1.468e+06  12.70      14.570     21.449     25.121     26.385     27.832     29.084     30.152     31.086     32.049     32.949     33.734     34.581     35.382     36.018     36.737     37.410     37.910     38.485     39.024     39.392     39.796     40.167     40.369     40.570     40.768     41.317     40.495     39.930     39.600     36.744     28.944     19.270    
144        3.516e+12  15.6       291.5      1.468e+06  12.70      19.226     27.301     31.389     32.342     33.412     34.197     34.710     35.014     35.349     35.602     35.719     35.914     36.070     36.074     36.182     36.264     36.210     36.247     36.665     36.192     36.171     36.152     36.030     35.946     35.893     35.740     35.363     34.797     34.477     32.022     25.416     17.269    
3600       3.611e+12  15.6       291.5      1.468e+06  12.70      22.396     29.974     34.186     35.325     36.063     36.420     36.888     36.380     36.300     36.168     35.959     35.828     35.683     35.452     35.311     35.166     34.938     34.788     34.640     34.423     34.262     34.107     33.884     33.689     33.515     33.258     32.780     32.109     31.293     28.621     23.135     16.380    
5760       3.649e+12  15.6       291.5      1.468e+06  12.70      23.216     30.126     34.647     36.435     37.273     37.650     38.115     37.517     37.369     37.152     36.837     36.605     36.358     36.012     35.764     35.513     35.169     34.908     34.651     34.319     34.046     33.781     33.443     33.129     32.832     32.446     31.823     31.000     29.782     26.830     21.862     15.850    
7922.4     3.705e+12  15.6       291.5      1.468e+06  12.70      22.981     28.902     33.039     34.707     35.170     35.648     35.183     34.995     34.901     34.790     34.632     34.601     34.578     34.460     34.464     34.470     34.373     34.381     34.391     34.300     34.273     34.251     34.130     34.032     33.940     33.726     33.255     32.534     31.088     27.744     22.817     16.915    
8365.4     3.618e+12  15.6       284.2      1.495e+06  12.70      18.307     23.122     26.417     27.784     28.245     28.462     28.549     28.614     28.782     28.960     29.111     29.379     29.663     29.878     30.218     30.564     30.813     31.160     31.515     31.779     32.120     32.474     32.729     33.014     33.313     33.905     33.438     33.117     32.022     28.870     23.969     17.755    
8367.4     3.960e+12  15.7       291.5      1.471e+06  12.70      8.786      12.807     15.818     17.900     19.526     21.013     22.417     23.780     25.190     26.586     27.928     29.335     30.722     31.994     33.339     34.637     35.771     36.949     38.055     38.961     39.846     40.627     41.156     41.542     42.211     41.644     41.076     40.000     37.885     33.447     26.714     18.131    
8510.4     3.967e+12  15.7       291.5      1.471e+06  12.70      13.221     18.600     22.411     24.702     26.176     27.353     28.300     29.084     29.877     30.592     31.177     31.830     32.444     32.908     33.469     33.996     34.367     34.820     35.241     35.509     35.809     36.070     36.161     36.597     36.132     35.853     35.253     34.274     32.460     28.692     23.058     15.941    
11966.4    4.058e+12  15.7       291.5      1.471e+06  12.70      18.690     24.696     28.435     30.139     30.790     31.087     31.495     31.065     31.035     30.966     30.805     30.761     30.719     30.564     30.548     30.542     30.422     30.429     30.457     30.385     30.410     30.470     30.435     30.444     30.467     30.371     30.114     29.605     28.418     25.633     21.158     15.290    
15206.4    4.131e+12  15.7       291.5      1.471e+06  12.70      20.613     25.880     28.794     29.899     30.427     30.105     29.944     29.679     29.540     29.385     29.123     29.029     28.941     28.696     28.636     28.583     28.371     28.318     28.289     28.124     28.083     28.092     27.989     27.962     27.989     27.915     27.758     27.424     26.532     24.315     20.507     15.406    
16062.2    4.152e+12  15.7       291.5      1.471e+06  12.70      20.642     25.615     28.222     29.142     29.591     29.165     28.980     28.718     28.610     28.503     28.297     28.277     28.267     28.090     28.110     28.135     27.985     28.006     28.048     27.936     27.953     28.020     27.961     27.986     28.069     28.047     27.949     27.681     26.858     24.732     20.983     15.916    
16064.2    4.258e+12  15.8       291.0      1.476e+06  12.70      6.107      8.749      10.533     11.809     12.790     13.685     14.519     15.288     16.113     16.928     17.663     18.484     19.293     19.966     20.734     21.475     22.048     22.696     23.307     23.732     24.177     24.573     24.768     24.899     25.185     24.686     24.254     23.470     22.115     19.720     15.988     10.971    
16207.2    4.246e+12  15.8       291.0      1.476e+06  12.70      9.007      12.469     14.651     16.020     16.896     17.594     18.148     18.564     19.021     19.429     19.715     20.094     20.451     20.654     20.975     21.276     21.419     21.662     21.893     21.973     22.107     22.530     22.210     22.171     22.073     21.804     21.398     20.727     19.587     17.536     14.336     10.037    
19303.2    4.232e+12  15.8       291.0      1.476e+06  12.70      12.956     16.932     19.015     19.977     20.301     20.443     20.460     20.358     20.355     20.337     20.218     20.245     20.279     20.171     20.230     20.299     20.224     20.297     20.395     20.364     20.446     20.575     20.592     20.669     21.040     20.759     20.688     20.427     19.729     18.114     15.239     11.143    
21340.8    4.231e+12  15.8       291.0      1.476e+06  12.70      14.886     18.749     20.518     21.161     21.489     21.122     20.973     20.744     20.658     20.576     20.397     20.389     20.392     20.236     20.269     20.314     20.194     20.240     20.316     20.247     20.311     20.434     20.443     20.538     20.692     20.755     20.798     20.697     20.188     18.776     16.052     12.073    
22797.6    4.169e+12  15.8       288.7      1.485e+06  12.70      7.078      8.964      9.805      10.160     10.266     10.353     10.437     10.503     10.663     10.840     10.973     11.212     11.466     11.629     11.912     12.210     12.404     12.713     13.048     13.286     13.623     14.012     14.322     14.707     15.151     15.537     15.925     16.445     16.173     15.383     13.406     10.139    
