# ===============================================================================================================================================================================
# TIME     FASTF      PCOOL      TCOOL      GKL        PITCH      Q1         Q2         Q3         Q4         Q5         Q6         Q7         Q8         Q9         Q10       
# (h)      (n/cmWs)   (MPa)      (Celsius)  (kg/s)     (mm)       (kW/m)     (kW/m)     (kW/m)     (kW/m)     (kW/m)     (kW/m)     (kW/m)     (kW/m)     (kW/m)     (kW/m)    
# ===============================================================================================================================================================================
0          4.355e+12  15.8       291.7      1.140e+06  12.70      16.035     23.440     27.435     30.109     31.892     32.827     32.708     31.355     27.531     16.866    
144        4.380e+12  15.8       291.7      1.140e+06  12.70      20.701     27.938     30.270     31.099     31.308     31.094     30.460     29.151     25.950     16.380    
3240       4.543e+12  15.8       291.7      1.140e+06  12.70      23.720     30.462     30.881     30.332     29.749     29.245     28.812     28.290     26.511     17.494    
5880       4.650e+12  15.8       291.7      1.140e+06  12.70      24.329     31.870     31.434     30.475     29.637     28.943     28.408     28.013     26.778     17.725    
6765.6     4.687e+12  15.8       291.7      1.140e+06  12.70      24.248     31.138     30.356     29.475     28.833     28.360     28.061     27.998     27.404     18.386    
7844.6     4.559e+12  15.8       279.2      1.175e+06  12.70      18.000     22.940     23.145     23.634     24.463     25.474     26.662     28.160     29.596     20.655    
7846.6     5.023e+12  15.8       291.7      1.146e+06  12.70      9.729      15.584     18.586     20.861     22.529     23.488     23.571     22.478     19.392     11.700    
7989.6     5.023e+12  15.8       291.7      1.146e+06  12.70      12.799     18.927     20.847     21.823     22.321     22.430     22.097     21.076     18.508     11.557    
11445.6    5.068e+12  15.8       291.7      1.146e+06  12.70      15.690     20.616     20.873     20.675     20.491     20.375     20.311     20.172     19.155     13.294    
13605.6    5.117e+12  15.8       291.7      1.146e+06  12.70      16.644     21.047     20.808     20.371     20.038     19.809     19.683     19.614     18.963     13.704    
14834.4    5.133e+12  15.8       291.7      1.146e+06  12.70      16.691     20.496     20.045     19.653     19.464     19.429     19.569     19.955     20.155     15.186    
16328.6    4.931e+12  15.8       275.2      1.191e+06  12.70      11.772     14.215     14.370     14.856     15.616     16.547     17.681     19.172     20.999     16.838    
16330.6    5.500e+12  15.8       291.7      1.148e+06  12.70      16.287     22.801     25.005     26.280     27.023     27.210     26.814     25.750     23.356     15.746    
16473.6    5.480e+12  15.8       291.7      1.148e+06  12.70      18.563     24.563     25.572     25.694     25.516     25.107     24.477     23.544     21.649     15.002    
17769.6    5.506e+12  15.8       291.7      1.148e+06  12.70      19.067     24.161     24.602     24.506     24.348     24.137     23.849     23.386     22.063     15.809    
19375.2    5.525e+12  15.8       291.7      1.148e+06  12.70      19.011     23.084     23.118     22.931     22.845     22.845     22.951     23.182     23.051     17.576    
21230.4    5.278e+12  15.8       273.3      1.198e+06  12.70      12.224     14.693     15.196     15.946     16.955     18.142     19.525     21.199     23.118     19.041    
21234.2    5.271e+12  15.8       283.4      1.171e+06  12.70      5.873      7.345      7.992      8.865      9.977      11.290     12.812     14.580     16.302     13.838    
21236.2    5.785e+12  15.8       291.7      1.148e+06  12.70      11.430     15.418     16.791     17.440     17.799     17.412     16.893     16.050     14.510     9.318     
21379.2    5.756e+12  15.8       291.7      1.148e+06  12.70      13.333     17.051     17.728     17.763     17.514     17.090     16.540     15.828     14.541     9.587     
22795.2    5.752e+12  15.8       291.7      1.148e+06  12.70      13.778     16.867     17.193     17.205     17.150     17.060     16.949     16.793     16.222     11.266    
23620.8    5.735e+12  15.8       291.7      1.148e+06  12.70      14.198     16.957     17.072     17.002     16.941     16.904     16.906     16.969     16.826     12.129    
24258.2    5.615e+12  15.8       283.2      1.172e+06  12.70      12.188     14.508     14.862     15.250     15.731     16.260     16.834     17.480     18.102     13.402    
24260.2    6.119e+12  15.8       291.7      1.148e+06  12.70      3.777      5.794      7.064      8.162      9.158      10.019     10.656     10.953     10.273     7.301     
24403.2    6.058e+12  15.8       291.7      1.148e+06  12.70      5.409      7.608      8.452      8.944      9.301      9.581      9.773      9.773      9.227      6.725     
29659.2    5.873e+12  15.8       291.7      1.148e+06  12.70      7.468      9.045      9.141      9.103      9.070      9.056      9.068      9.090      8.944      7.206     
31540.8    5.809e+12  15.8       291.7      1.148e+06  12.70      7.766      9.030      8.997      8.983      9.050      9.177      9.369      9.657      10.019     8.442     
32276.6    5.662e+12  15.8       281.1      1.178e+06  12.70      6.597      7.632      7.733      7.959      8.305      8.728      9.230      9.858      10.538     9.288     
32278.6    6.446e+12  15.8       291.7      1.146e+06  12.70      3.300      4.925      6.015      6.998      7.894      8.650      9.180      9.404      8.861      6.092     
32421.6    6.379e+12  15.8       291.7      1.146e+06  12.70      4.829      6.617      7.358      7.825      8.165      8.411      8.580      8.502      8.038      5.634     
35877.6    6.220e+12  15.8       291.7      1.146e+06  12.70      6.581      8.040      8.198      8.194      8.179      8.181      8.204      8.277      8.081      6.094     
37677.6    6.148e+12  15.8       291.7      1.146e+06  12.70      7.041      8.279      8.311      8.255      8.207      8.178      8.172      8.192      8.121      6.298     
39432      6.075e+12  15.8       291.7      1.146e+06  12.70      7.321      8.298      8.239      8.234      8.309      8.440      8.625      8.898      9.243      7.551     
40375.2    5.915e+12  15.8       281.2      1.175e+06  12.70      5.525      6.240      6.336      6.578      6.938      7.374      7.887      8.526      9.302      7.976     
