# ===============================================================================================================================================================================
# TIME     FASTF      PCOOL      TCOOL      GKL        PITCH      Q1         Q2         Q3         Q4         Q5         Q6         Q7         Q8         Q9         Q10       
# (h)      (n/cmWs)   (MPa)      (Celsius)  (kg/s)     (mm)       (kW/m)     (kW/m)     (kW/m)     (kW/m)     (kW/m)     (kW/m)     (kW/m)     (kW/m)     (kW/m)     (kW/m)    
# ===============================================================================================================================================================================
0          4.796e+12  15.8       291.7      1.140e+06  12.70      14.261     20.847     24.400     26.779     28.364     29.196     29.089     27.886     24.486     15.000    
144        4.826e+12  15.8       291.7      1.140e+06  12.70      18.363     24.783     26.852     27.587     27.772     27.582     27.020     25.859     23.019     14.530    
3240       5.047e+12  15.8       291.7      1.140e+06  12.70      20.935     26.886     27.256     26.772     26.257     25.812     25.430     24.969     23.399     15.440    
5880       5.187e+12  15.8       291.7      1.140e+06  12.70      21.455     28.106     27.721     26.875     26.136     25.524     25.052     24.704     23.614     15.632    
6765.6     5.203e+12  15.8       291.7      1.140e+06  12.70      21.522     27.636     26.942     26.160     25.591     25.171     24.905     24.849     24.323     16.318    
7844.6     5.043e+12  15.8       279.2      1.175e+06  12.70      16.112     20.533     20.717     21.155     21.897     22.802     23.865     25.206     26.491     18.488    
7846.6     5.538e+12  15.8       291.7      1.146e+06  12.70      9.716      15.564     18.562     20.835     22.500     23.458     23.541     22.450     19.367     11.685    
7989.6     5.534e+12  15.8       291.7      1.146e+06  12.70      12.766     18.878     20.793     21.767     22.263     22.372     22.040     21.021     18.460     11.527    
11445.6    5.541e+12  15.8       291.7      1.146e+06  12.70      15.763     20.712     20.971     20.772     20.587     20.470     20.405     20.266     19.245     13.356    
13605.6    5.558e+12  15.8       291.7      1.146e+06  12.70      16.857     21.316     21.074     20.632     20.294     20.062     19.934     19.865     19.205     13.880    
14834.4    5.555e+12  15.8       291.7      1.146e+06  12.70      16.964     20.831     20.372     19.974     19.782     19.746     19.889     20.281     20.484     15.434    
16328.6    5.318e+12  15.8       275.2      1.191e+06  12.70      11.991     14.480     14.637     15.132     15.907     16.855     18.010     19.529     21.390     17.151    
16330.6    5.930e+12  15.8       291.7      1.148e+06  12.70      15.130     21.181     23.228     24.413     25.103     25.277     24.909     23.921     21.697     14.627    
16473.6    5.906e+12  15.8       291.7      1.148e+06  12.70      17.266     22.846     23.785     23.898     23.733     23.352     22.767     21.898     20.136     13.953    
17769.6    5.898e+12  15.8       291.7      1.148e+06  12.70      17.841     22.607     23.020     22.931     22.783     22.585     22.315     21.882     20.644     14.793    
19375.2    5.883e+12  15.8       291.7      1.148e+06  12.70      17.913     21.750     21.782     21.607     21.525     21.525     21.626     21.843     21.719     16.561    
21230.4    5.585e+12  15.8       273.3      1.198e+06  12.70      11.577     13.915     14.391     15.101     16.058     17.181     18.491     20.077     21.894     18.032    
21234.2    5.575e+12  15.8       283.4      1.171e+06  12.70      5.563      6.957      7.570      8.397      9.450      10.694     12.136     13.809     15.441     13.107    
21236.2    6.113e+12  15.8       291.7      1.148e+06  12.70      11.161     15.054     16.395     17.029     17.379     17.001     16.495     15.672     14.168     9.099     
21379.2    6.082e+12  15.8       291.7      1.148e+06  12.70      12.999     16.623     17.283     17.318     17.074     16.662     16.125     15.431     14.176     9.346     
22795.2    6.046e+12  15.8       291.7      1.148e+06  12.70      13.453     16.469     16.787     16.799     16.745     16.658     16.549     16.397     15.839     11.000    
23620.8    6.018e+12  15.8       291.7      1.148e+06  12.70      13.882     16.578     16.691     16.622     16.563     16.527     16.529     16.591     16.451     11.858    
24258.2    5.884e+12  15.8       283.2      1.172e+06  12.70      11.927     14.198     14.545     14.924     15.395     15.912     16.474     17.107     17.715     13.116    
24260.2    6.413e+12  15.8       291.7      1.148e+06  12.70      3.376      5.178      6.313      7.294      8.184      8.954      9.523      9.789      9.181      6.525     
24403.2    6.360e+12  15.8       291.7      1.148e+06  12.70      4.859      6.835      7.594      8.035      8.356      8.608      8.780      8.780      8.289      6.042     
29659.2    6.143e+12  15.8       291.7      1.148e+06  12.70      6.817      8.256      8.344      8.309      8.278      8.266      8.277      8.297      8.164      6.577     
31540.8    6.068e+12  15.8       291.7      1.148e+06  12.70      7.120      8.279      8.249      8.236      8.297      8.413      8.590      8.854      9.185      7.740     
32276.6    5.908e+12  15.8       281.1      1.178e+06  12.70      6.034      6.980      7.072      7.279      7.596      7.982      8.442      9.016      9.638      8.495     
32278.6    6.716e+12  15.8       291.7      1.146e+06  12.70      3.293      4.914      6.001      6.982      7.876      8.631      9.159      9.382      8.841      6.079     
32421.6    6.656e+12  15.8       291.7      1.146e+06  12.70      4.817      6.599      7.339      7.804      8.143      8.389      8.557      8.479      8.017      5.619     
35877.6    6.483e+12  15.8       291.7      1.146e+06  12.70      6.564      8.019      8.176      8.172      8.158      8.160      8.182      8.255      8.060      6.078     
37677.6    6.407e+12  15.8       291.7      1.146e+06  12.70      7.024      8.258      8.290      8.234      8.186      8.157      8.152      8.171      8.101      6.282     
39432      6.321e+12  15.8       291.7      1.146e+06  12.70      7.303      8.278      8.220      8.214      8.290      8.420      8.605      8.877      9.221      7.533     
40375.2    6.150e+12  15.8       281.2      1.175e+06  12.70      5.513      6.226      6.322      6.564      6.923      7.357      7.869      8.507      9.282      7.958     
