# ===============================================================================================================================================================================
# TIME     FASTF      PCOOL      TCOOL      GKL        PITCH      Q1         Q2         Q3         Q4         Q5         Q6         Q7         Q8         Q9         Q10       
# (h)      (n/cmWs)   (MPa)      (Celsius)  (kg/s)     (mm)       (kW/m)     (kW/m)     (kW/m)     (kW/m)     (kW/m)     (kW/m)     (kW/m)     (kW/m)     (kW/m)     (kW/m)    
# ===============================================================================================================================================================================
0          4.721e+12  15.8       291.7      1.140e+06  12.70      12.523     18.306     21.427     23.515     24.907     25.637     25.544     24.488     21.501     13.172    
144        4.724e+12  15.8       291.7      1.140e+06  12.70      16.212     21.879     23.706     24.355     24.518     24.351     23.854     22.830     20.323     12.828    
3240       4.720e+12  15.8       291.7      1.140e+06  12.70      19.406     24.922     25.265     24.816     24.339     23.926     23.572     23.145     21.690     14.312    
5880       4.749e+12  15.8       291.7      1.140e+06  12.70      20.406     26.731     26.364     25.560     24.858     24.275     23.827     23.495     22.459     14.867    
6765.6     4.742e+12  15.8       291.7      1.140e+06  12.70      20.668     26.540     25.873     25.122     24.575     24.172     23.917     23.863     23.358     15.671    
7844.6     4.599e+12  15.8       279.2      1.175e+06  12.70      15.558     19.827     20.005     20.427     21.144     22.018     23.045     24.339     25.580     17.853    
7846.6     5.099e+12  15.8       291.7      1.146e+06  12.70      11.921     19.095     22.773     25.562     27.605     28.780     28.882     27.543     23.762     14.336    
7989.6     5.108e+12  15.8       291.7      1.146e+06  12.70      15.547     22.991     25.324     26.510     27.115     27.247     26.843     25.602     22.483     14.039    
11445.6    5.331e+12  15.8       291.7      1.146e+06  12.70      18.457     24.251     24.554     24.321     24.104     23.967     23.892     23.729     22.533     15.638    
13605.6    5.429e+12  15.8       291.7      1.146e+06  12.70      19.508     24.668     24.388     23.876     23.485     23.217     23.069     22.989     22.225     16.062    
14834.4    5.465e+12  15.8       291.7      1.146e+06  12.70      19.484     23.925     23.398     22.941     22.721     22.679     22.843     23.294     23.527     17.727    
16328.6    5.257e+12  15.8       275.2      1.191e+06  12.70      13.635     16.465     16.644     17.207     18.088     19.166     20.479     22.207     24.323     19.503    
16330.6    6.848e+12  15.8       291.7      1.148e+06  12.70      13.416     18.783     20.598     21.648     22.261     22.415     22.088     21.212     19.240     12.971    
16473.6    6.830e+12  15.8       291.7      1.148e+06  12.70      15.263     20.196     21.026     21.126     20.979     20.643     20.126     19.358     17.800     12.335    
17769.6    6.752e+12  15.8       291.7      1.148e+06  12.70      15.925     20.180     20.549     20.469     20.337     20.160     19.920     19.533     18.428     13.205    
19375.2    6.653e+12  15.8       291.7      1.148e+06  12.70      16.165     19.628     19.657     19.498     19.425     19.425     19.515     19.711     19.600     14.945    
21230.4    6.236e+12  15.8       273.3      1.198e+06  12.70      10.615     12.758     13.195     13.846     14.723     15.753     16.954     18.408     20.075     16.534    
21234.2    6.227e+12  15.8       283.4      1.171e+06  12.70      5.103      6.382      6.944      7.702      8.669      9.809      11.132     12.667     14.164     12.023    
21236.2    5.868e+12  15.8       291.7      1.148e+06  12.70      12.755     17.206     18.738     19.462     19.862     19.431     18.852     17.911     16.193     10.399    
21379.2    5.844e+12  15.8       291.7      1.148e+06  12.70      14.743     18.854     19.602     19.642     19.365     18.897     18.289     17.502     16.079     10.600    
22795.2    5.840e+12  15.8       291.7      1.148e+06  12.70      15.036     18.407     18.763     18.776     18.716     18.618     18.497     18.327     17.703     12.295    
23620.8    5.831e+12  15.8       291.7      1.148e+06  12.70      15.400     18.392     18.517     18.440     18.375     18.334     18.337     18.405     18.250     13.155    
24258.2    5.708e+12  15.8       283.2      1.172e+06  12.70      13.211     15.727     16.111     16.531     17.052     17.625     18.248     18.949     19.623     14.528    
24260.2    6.343e+12  15.8       291.7      1.148e+06  12.70      3.074      4.714      5.748      6.642      7.452      8.152      8.671      8.912      8.359      5.941     
24403.2    6.278e+12  15.8       291.7      1.148e+06  12.70      4.442      6.247      6.941      7.344      7.638      7.868      8.025      8.025      7.576      5.523     
29659.2    6.083e+12  15.8       291.7      1.148e+06  12.70      6.288      7.616      7.696      7.665      7.636      7.625      7.635      7.653      7.530      6.067     
31540.8    6.012e+12  15.8       291.7      1.148e+06  12.70      6.583      7.654      7.626      7.614      7.671      7.778      7.941      8.185      8.491      7.155     
32276.6    5.864e+12  15.8       281.1      1.178e+06  12.70      5.564      6.437      6.522      6.712      7.005      7.361      7.785      8.314      8.888      7.833     
32278.6    6.499e+12  15.8       291.7      1.146e+06  12.70      3.862      5.763      7.038      8.188      9.237      10.122     10.741     11.004     10.369     7.129     
32421.6    6.464e+12  15.8       291.7      1.146e+06  12.70      5.591      7.660      8.518      9.058      9.452      9.737      9.932      9.842      9.305      6.522     
35877.6    6.477e+12  15.8       291.7      1.146e+06  12.70      7.359      8.989      9.166      9.161      9.145      9.148      9.173      9.254      9.035      6.813     
37677.6    6.448e+12  15.8       291.7      1.146e+06  12.70      7.787      9.155      9.191      9.129      9.075      9.043      9.038      9.059      8.981      6.965     
39432      6.409e+12  15.8       291.7      1.146e+06  12.70      8.005      9.073      9.009      9.002      9.086      9.229      9.431      9.729      10.107     8.256     
40375.2    6.229e+12  15.8       281.2      1.175e+06  12.70      6.057      6.841      6.946      7.212      7.606      8.084      8.646      9.346      10.198     8.743     
