# ===============================================================================================================================================================================
# TIME     FASTF      PCOOL      TCOOL      GKL        PITCH      Q1         Q2         Q3         Q4         Q5         Q6         Q7         Q8         Q9         Q10       
# (h)      (n/cmWs)   (MPa)      (Celsius)  (kg/s)     (mm)       (kW/m)     (kW/m)     (kW/m)     (kW/m)     (kW/m)     (kW/m)     (kW/m)     (kW/m)     (kW/m)     (kW/m)    
# ===============================================================================================================================================================================
0          4.633e+12  15.8       291.7      1.140e+06  12.70      12.945     18.922     22.146     24.303     25.739     26.491     26.393     25.300     22.215     13.610    
144        4.653e+12  15.8       291.7      1.140e+06  12.70      16.838     22.724     24.621     25.294     25.463     25.288     24.771     23.707     21.104     13.322    
3240       4.772e+12  15.8       291.7      1.140e+06  12.70      19.540     25.094     25.440     24.988     24.508     24.092     23.736     23.306     21.842     14.413    
5880       4.851e+12  15.8       291.7      1.140e+06  12.70      20.197     26.457     26.095     25.299     24.604     24.028     23.584     23.256     22.231     14.717    
6765.6     4.853e+12  15.8       291.7      1.140e+06  12.70      20.323     26.097     25.442     24.704     24.166     23.770     23.520     23.467     22.970     15.412    
7844.6     4.700e+12  15.8       279.2      1.175e+06  12.70      15.144     19.299     19.472     19.883     20.581     21.432     22.431     23.692     24.900     17.379    
7846.6     5.683e+12  15.8       291.7      1.146e+06  12.70      6.787      10.871     12.964     14.551     15.713     16.380     16.437     15.675     13.522     8.159     
7989.6     5.680e+12  15.8       291.7      1.146e+06  12.70      8.999      13.307     14.657     15.343     15.692     15.768     15.534     14.816     13.010     8.125     
11445.6    5.630e+12  15.8       291.7      1.146e+06  12.70      11.622     15.270     15.461     15.314     15.178     15.092     15.045     14.942     14.190     9.848     
13605.6    5.606e+12  15.8       291.7      1.146e+06  12.70      12.824     16.216     16.032     15.696     15.439     15.263     15.166     15.113     14.611     10.560    
14834.4    5.584e+12  15.8       291.7      1.146e+06  12.70      13.118     16.108     15.753     15.445     15.297     15.269     15.380     15.683     15.840     11.936    
16328.6    5.325e+12  15.8       275.2      1.191e+06  12.70      9.318      11.252     11.374     11.759     12.361     13.098     13.995     15.176     16.622     13.328    
16330.6    5.492e+12  15.8       291.7      1.148e+06  12.70      16.059     22.483     24.655     25.912     26.645     26.829     26.438     25.389     23.028     15.525    
16473.6    5.475e+12  15.8       291.7      1.148e+06  12.70      18.374     24.313     25.312     25.432     25.255     24.850     24.227     23.303     21.427     14.847    
17769.6    5.499e+12  15.8       291.7      1.148e+06  12.70      18.937     23.996     24.434     24.339     24.181     23.971     23.685     23.224     21.910     15.699    
19375.2    5.515e+12  15.8       291.7      1.148e+06  12.70      18.952     23.012     23.045     22.859     22.772     22.772     22.878     23.107     22.976     17.519    
21230.4    5.270e+12  15.8       273.3      1.198e+06  12.70      12.150     14.604     15.104     15.849     16.853     18.032     19.406     21.070     22.976     18.923    
21234.2    5.271e+12  15.8       283.4      1.171e+06  12.70      5.833      7.295      7.936      8.803      9.908      11.211     12.723     14.477     16.187     13.741    
21236.2    5.585e+12  15.8       291.7      1.148e+06  12.70      12.432     16.769     18.263     18.969     19.359     18.938     18.373     17.457     15.782     10.135    
21379.2    5.557e+12  15.8       291.7      1.148e+06  12.70      14.597     18.667     19.408     19.447     19.174     18.710     18.108     17.329     15.920     10.496    
22795.2    5.559e+12  15.8       291.7      1.148e+06  12.70      15.004     18.368     18.723     18.736     18.676     18.578     18.457     18.288     17.665     12.269    
23620.8    5.553e+12  15.8       291.7      1.148e+06  12.70      15.440     18.440     18.565     18.489     18.423     18.382     18.385     18.454     18.298     13.190    
24258.2    5.445e+12  15.8       283.2      1.172e+06  12.70      13.194     15.706     16.090     16.509     17.030     17.602     18.224     18.924     19.597     14.509    
24260.2    6.033e+12  15.8       291.7      1.148e+06  12.70      6.599      10.122     12.341     14.260     16.001     17.505     18.619     19.138     17.948     12.754    
24403.2    5.999e+12  15.8       291.7      1.148e+06  12.70      9.296      13.075     14.526     15.371     15.985     16.467     16.797     16.797     15.856     11.556    
29659.2    6.130e+12  15.8       291.7      1.148e+06  12.70      11.663     14.126     14.276     14.216     14.164     14.143     14.161     14.196     13.967     11.251    
31540.8    6.124e+12  15.8       291.7      1.148e+06  12.70      11.794     13.712     13.663     13.641     13.743     13.935     14.227     14.665     15.213     12.819    
32276.6    5.972e+12  15.8       281.1      1.178e+06  12.70      10.007     11.576     11.728     12.071     12.597     13.238     14.000     14.952     15.983     14.086    
32278.6    6.502e+12  15.8       291.7      1.146e+06  12.70      5.858      8.739      10.672     12.418     14.013     15.362     16.308     16.715     15.758     10.837    
32421.6    6.467e+12  15.8       291.7      1.146e+06  12.70      8.396      11.499     12.787     13.599     14.193     14.625     14.923     14.792     13.992     9.809     
35877.6    6.514e+12  15.8       291.7      1.146e+06  12.70      10.622     12.973     13.227     13.221     13.199     13.204     13.241     13.360     13.048     9.841     
37677.6    6.501e+12  15.8       291.7      1.146e+06  12.70      11.040     12.978     13.028     12.940     12.865     12.821     12.813     12.844     12.736     9.879     
39432      6.450e+12  15.8       291.7      1.146e+06  12.70      11.168     12.656     12.567     12.558     12.674     12.874     13.156     13.574     14.103     11.523    
40375.2    6.271e+12  15.8       281.2      1.175e+06  12.70      8.447      9.538      9.684      10.055     10.605     11.271     12.055     13.033     14.222     12.196    
