# ===============================================================================================================================================================================
# TIME     FASTF      PCOOL      TCOOL      GKL        PITCH      Q1         Q2         Q3         Q4         Q5         Q6         Q7         Q8         Q9         Q10       
# (h)      (n/cmWs)   (MPa)      (Celsius)  (kg/s)     (mm)       (kW/m)     (kW/m)     (kW/m)     (kW/m)     (kW/m)     (kW/m)     (kW/m)     (kW/m)     (kW/m)     (kW/m)    
# ===============================================================================================================================================================================
0          4.611e+12  15.8       291.7      1.140e+06  12.70      11.553     16.887     19.764     21.689     22.971     23.642     23.554     22.579     19.825     12.146    
144        4.617e+12  15.8       291.7      1.140e+06  12.70      15.123     20.409     22.113     22.717     22.869     22.712     22.248     21.292     18.954     11.965    
3240       4.630e+12  15.8       291.7      1.140e+06  12.70      18.207     23.383     23.705     23.284     22.836     22.449     22.117     21.717     20.352     13.430    
5880       4.661e+12  15.8       291.7      1.140e+06  12.70      19.222     25.180     24.835     24.077     23.416     22.868     22.446     22.134     21.158     14.006    
6765.6     4.660e+12  15.8       291.7      1.140e+06  12.70      19.468     24.999     24.371     23.664     23.149     22.769     22.530     22.480     22.004     14.763    
7844.6     4.516e+12  15.8       279.2      1.175e+06  12.70      14.540     18.530     18.696     19.090     19.760     20.577     21.537     22.747     23.907     16.686    
7846.6     5.054e+12  15.8       291.7      1.146e+06  12.70      9.414      15.078     17.982     20.182     21.794     22.720     22.799     21.741     18.756     11.317    
7989.6     5.058e+12  15.8       291.7      1.146e+06  12.70      12.382     18.310     20.167     21.111     21.592     21.696     21.374     20.386     17.902     11.179    
11445.6    5.238e+12  15.8       291.7      1.146e+06  12.70      15.228     20.008     20.258     20.066     19.888     19.775     19.713     19.578     18.592     12.904    
13605.6    5.317e+12  15.8       291.7      1.146e+06  12.70      16.446     20.797     20.560     20.130     19.800     19.574     19.449     19.382     18.739     13.543    
14834.4    5.343e+12  15.8       291.7      1.146e+06  12.70      16.613     20.400     19.950     19.561     19.373     19.338     19.478     19.862     20.061     15.116    
16328.6    5.137e+12  15.8       275.2      1.191e+06  12.70      11.686     14.111     14.264     14.747     15.501     16.426     17.551     19.032     20.846     16.715    
16330.6    6.694e+12  15.8       291.7      1.148e+06  12.70      12.937     18.112     19.862     20.874     21.465     21.613     21.298     20.453     18.551     12.506    
16473.6    6.675e+12  15.8       291.7      1.148e+06  12.70      14.776     19.552     20.355     20.452     20.310     19.984     19.483     18.739     17.231     11.940    
17769.6    6.619e+12  15.8       291.7      1.148e+06  12.70      15.449     19.576     19.933     19.856     19.727     19.556     19.322     18.946     17.874     12.808    
19375.2    6.545e+12  15.8       291.7      1.148e+06  12.70      15.704     19.068     19.096     18.941     18.870     18.869     18.957     19.147     19.039     14.516    
21230.4    6.158e+12  15.8       273.3      1.198e+06  12.70      10.262     12.334     12.756     13.385     14.233     15.228     16.389     17.794     19.405     15.982    
21234.2    6.151e+12  15.8       283.4      1.171e+06  12.70      4.928      6.163      6.705      7.437      8.370      9.472      10.749     12.231     13.676     11.609    
21236.2    5.685e+12  15.8       291.7      1.148e+06  12.70      12.612     17.012     18.527     19.243     19.639     19.212     18.639     17.710     16.011     10.282    
21379.2    5.658e+12  15.8       291.7      1.148e+06  12.70      14.760     18.875     19.625     19.664     19.388     18.919     18.310     17.522     16.097     10.613    
22795.2    5.657e+12  15.8       291.7      1.148e+06  12.70      15.126     18.517     18.875     18.888     18.827     18.730     18.608     18.436     17.809     12.369    
23620.8    5.641e+12  15.8       291.7      1.148e+06  12.70      15.545     18.565     18.691     18.615     18.549     18.508     18.511     18.579     18.423     13.280    
24258.2    5.529e+12  15.8       283.2      1.172e+06  12.70      13.295     15.826     16.212     16.635     17.160     17.737     18.363     19.068     19.747     14.620    
24260.2    6.210e+12  15.8       291.7      1.148e+06  12.70      5.549      8.512      10.377     11.991     13.455     14.719     15.656     16.092     15.092     10.724    
24403.2    6.159e+12  15.8       291.7      1.148e+06  12.70      7.896      11.107     12.339     13.057     13.579     13.988     14.268     14.268     13.470     9.817     
29659.2    6.040e+12  15.8       291.7      1.148e+06  12.70      10.536     12.760     12.895     12.842     12.794     12.775     12.792     12.823     12.616     10.163    
31540.8    5.992e+12  15.8       291.7      1.148e+06  12.70      10.795     12.552     12.507     12.487     12.580     12.755     13.023     13.424     13.926     11.734    
32276.6    5.842e+12  15.8       281.1      1.178e+06  12.70      9.155      10.590     10.729     11.043     11.524     12.110     12.808     13.679     14.622     12.887    
32278.6    6.442e+12  15.8       291.7      1.146e+06  12.70      5.717      8.529      10.415     12.120     13.677     14.993     15.916     16.313     15.379     10.577    
32421.6    6.411e+12  15.8       291.7      1.146e+06  12.70      8.202      11.233     12.491     13.285     13.865     14.287     14.578     14.451     13.669     9.582     
35877.6    6.460e+12  15.8       291.7      1.146e+06  12.70      10.421     12.727     12.977     12.971     12.949     12.953     12.990     13.107     12.800     9.655     
37677.6    6.442e+12  15.8       291.7      1.146e+06  12.70      10.848     12.752     12.801     12.715     12.641     12.597     12.590     12.621     12.515     9.707     
39432      6.394e+12  15.8       291.7      1.146e+06  12.70      10.989     12.454     12.366     12.357     12.471     12.668     12.946     13.357     13.878     11.339    
40375.2    6.215e+12  15.8       281.2      1.175e+06  12.70      8.313      9.388      9.531      9.896      10.437     11.093     11.865     12.827     13.998     12.004    
