# ===============================================================================================================================================================================
# TIME     FASTF      PCOOL      TCOOL      GKL        PITCH      Q1         Q2         Q3         Q4         Q5         Q6         Q7         Q8         Q9         Q10       
# (h)      (n/cmWs)   (MPa)      (Celsius)  (kg/s)     (mm)       (kW/m)     (kW/m)     (kW/m)     (kW/m)     (kW/m)     (kW/m)     (kW/m)     (kW/m)     (kW/m)     (kW/m)    
# ===============================================================================================================================================================================
0          4.791e+12  15.8       291.7      1.140e+06  12.70      14.020     20.493     23.984     26.319     27.875     28.690     28.583     27.400     24.058     14.739    
144        4.810e+12  15.8       291.7      1.140e+06  12.70      18.031     24.334     26.364     27.085     27.266     27.079     26.526     25.386     22.599     14.266    
3240       4.846e+12  15.8       291.7      1.140e+06  12.70      21.197     27.223     27.597     27.107     26.586     26.135     25.749     25.283     23.694     15.636    
5880       4.860e+12  15.8       291.7      1.140e+06  12.70      22.173     29.046     28.648     27.774     27.011     26.379     25.892     25.532     24.407     16.156    
6765.6     4.865e+12  15.8       291.7      1.140e+06  12.70      22.284     28.615     27.896     27.087     26.497     26.063     25.788     25.731     25.186     16.898    
7844.6     4.714e+12  15.8       279.2      1.175e+06  12.70      16.667     21.240     21.430     21.883     22.651     23.587     24.687     26.075     27.404     19.127    
7846.6     5.152e+12  15.8       291.7      1.146e+06  12.70      11.850     18.981     22.636     25.406     27.434     28.600     28.700     27.368     23.610     14.246    
7989.6     5.156e+12  15.8       291.7      1.146e+06  12.70      15.429     22.815     25.129     26.306     26.905     27.035     26.633     25.402     22.307     13.930    
11445.6    5.270e+12  15.8       291.7      1.146e+06  12.70      18.278     24.016     24.316     24.085     23.871     23.736     23.661     23.500     22.316     15.488    
13605.6    5.336e+12  15.8       291.7      1.146e+06  12.70      19.071     24.116     23.842     23.342     22.960     22.698     22.554     22.476     21.730     15.705    
14834.4    5.355e+12  15.8       291.7      1.146e+06  12.70      18.980     23.306     22.793     22.348     22.134     22.093     22.253     22.692     22.920     17.270    
16328.6    5.150e+12  15.8       275.2      1.191e+06  12.70      13.408     16.190     16.366     16.920     17.786     18.847     20.138     21.837     23.918     19.179    
16330.6    5.976e+12  15.8       291.7      1.148e+06  12.70      15.606     21.849     23.960     25.182     25.894     26.073     25.693     24.673     22.379     15.087    
16473.6    5.958e+12  15.8       291.7      1.148e+06  12.70      17.704     23.426     24.388     24.504     24.334     23.944     23.343     22.453     20.645     14.306    
17769.6    5.978e+12  15.8       291.7      1.148e+06  12.70      18.171     23.026     23.446     23.355     23.203     23.002     22.727     22.285     21.024     15.064    
19375.2    5.989e+12  15.8       291.7      1.148e+06  12.70      18.104     21.982     22.014     21.836     21.753     21.753     21.854     22.073     21.948     16.735    
21230.4    5.720e+12  15.8       273.3      1.198e+06  12.70      11.721     14.088     14.570     15.289     16.257     17.394     18.720     20.325     22.164     18.254    
21234.2    5.708e+12  15.8       283.4      1.171e+06  12.70      5.634      7.046      7.666      8.503      9.570      10.829     12.289     13.983     15.635     13.272    
21236.2    6.258e+12  15.8       291.7      1.148e+06  12.70      11.516     15.534     16.917     17.571     17.932     17.542     17.020     16.171     14.619     9.388     
21379.2    6.231e+12  15.8       291.7      1.148e+06  12.70      13.169     16.841     17.509     17.544     17.298     16.880     16.337     15.634     14.362     9.469     
22795.2    6.240e+12  15.8       291.7      1.148e+06  12.70      13.492     16.516     16.836     16.847     16.793     16.706     16.597     16.444     15.884     11.032    
23620.8    6.232e+12  15.8       291.7      1.148e+06  12.70      13.816     16.500     16.612     16.544     16.485     16.449     16.451     16.513     16.374     11.802    
24258.2    6.113e+12  15.8       283.2      1.172e+06  12.70      11.922     14.192     14.539     14.918     15.388     15.906     16.467     17.100     17.708     13.110    
24260.2    6.310e+12  15.8       291.7      1.148e+06  12.70      1.487      2.281      2.781      3.213      3.605      3.944      4.195      4.312      4.044      2.874     
24403.2    6.257e+12  15.8       291.7      1.148e+06  12.70      2.187      3.076      3.418      3.617      3.761      3.874      3.952      3.952      3.731      2.719     
29659.2    5.967e+12  15.8       291.7      1.148e+06  12.70      3.299      3.995      4.038      4.021      4.006      4.000      4.005      4.015      3.950      3.182     
31540.8    5.878e+12  15.8       291.7      1.148e+06  12.70      3.550      4.128      4.113      4.106      4.137      4.195      4.283      4.415      4.580      3.859     
32276.6    5.725e+12  15.8       281.1      1.178e+06  12.70      2.991      3.460      3.506      3.609      3.766      3.957      4.185      4.470      4.778      4.211     
32278.6    6.600e+12  15.8       291.7      1.146e+06  12.70      1.497      2.234      2.728      3.174      3.582      3.926      4.168      4.272      4.027      2.770     
32421.6    6.513e+12  15.8       291.7      1.146e+06  12.70      2.253      3.086      3.431      3.649      3.809      3.925      4.005      3.970      3.755      2.632     
35877.6    6.335e+12  15.8       291.7      1.146e+06  12.70      3.265      3.987      4.065      4.063      4.056      4.058      4.069      4.106      4.010      3.025     
37677.6    6.270e+12  15.8       291.7      1.146e+06  12.70      3.595      4.226      4.242      4.214      4.189      4.175      4.172      4.183      4.147      3.217     
39432      6.181e+12  15.8       291.7      1.146e+06  12.70      3.856      4.369      4.339      4.335      4.376      4.445      4.542      4.686      4.869      3.978     
40375.2    6.024e+12  15.8       281.2      1.175e+06  12.70      2.897      3.271      3.321      3.449      3.637      3.866      4.135      4.470      4.878      4.183     
