# ===============================================================================================================================================================================
# TIME     FASTF      PCOOL      TCOOL      GKL        PITCH      Q1         Q2         Q3         Q4         Q5         Q6         Q7         Q8         Q9         Q10       
# (h)      (n/cmWs)   (MPa)      (Celsius)  (kg/s)     (mm)       (kW/m)     (kW/m)     (kW/m)     (kW/m)     (kW/m)     (kW/m)     (kW/m)     (kW/m)     (kW/m)     (kW/m)    
# ===============================================================================================================================================================================
0          4.557e+12  15.8       291.7      1.140e+06  12.70      12.726     18.602     21.772     23.892     25.305     26.045     25.948     24.874     21.841     13.382    
144        4.563e+12  15.8       291.7      1.140e+06  12.70      16.503     22.273     24.132     24.792     24.957     24.786     24.280     23.237     20.686     13.059    
3240       4.603e+12  15.8       291.7      1.140e+06  12.70      19.615     25.191     25.538     25.084     24.602     24.185     23.827     23.396     21.926     14.470    
5880       4.669e+12  15.8       291.7      1.140e+06  12.70      20.472     26.817     26.450     25.643     24.939     24.355     23.905     23.572     22.534     14.917    
6765.6     4.677e+12  15.8       291.7      1.140e+06  12.70      20.692     26.571     25.904     25.152     24.605     24.201     23.946     23.893     23.387     15.691    
7844.6     4.539e+12  15.8       279.2      1.175e+06  12.70      15.517     19.775     19.952     20.373     21.088     21.960     22.984     24.276     25.514     17.807    
7846.6     5.062e+12  15.8       291.7      1.146e+06  12.70      11.690     18.724     22.330     25.063     27.066     28.217     28.316     27.003     23.295     14.054    
7989.6     5.073e+12  15.8       291.7      1.146e+06  12.70      15.259     22.565     24.854     26.018     26.611     26.740     26.343     25.125     22.063     13.777    
11445.6    5.296e+12  15.8       291.7      1.146e+06  12.70      18.204     23.919     24.218     23.988     23.775     23.640     23.566     23.405     22.225     15.424    
13605.6    5.397e+12  15.8       291.7      1.146e+06  12.70      19.312     24.420     24.143     23.637     23.250     22.984     22.838     22.759     22.003     15.901    
14834.4    5.430e+12  15.8       291.7      1.146e+06  12.70      19.318     23.722     23.199     22.746     22.528     22.487     22.649     23.096     23.328     17.577    
16328.6    5.228e+12  15.8       275.2      1.191e+06  12.70      13.529     16.337     16.514     17.073     17.947     19.017     20.320     22.034     24.134     19.351    
16330.6    6.850e+12  15.8       291.7      1.148e+06  12.70      13.232     18.525     20.314     21.350     21.953     22.104     21.782     20.917     18.972     12.790    
16473.6    6.831e+12  15.8       291.7      1.148e+06  12.70      15.061     19.929     20.747     20.845     20.700     20.368     19.857     19.099     17.562     12.169    
17769.6    6.759e+12  15.8       291.7      1.148e+06  12.70      15.721     19.921     20.285     20.206     20.075     19.900     19.662     19.280     18.189     13.033    
19375.2    6.664e+12  15.8       291.7      1.148e+06  12.70      15.957     19.375     19.404     19.247     19.174     19.174     19.263     19.456     19.346     14.751    
21230.4    6.258e+12  15.8       273.3      1.198e+06  12.70      10.468     12.581     13.012     13.654     14.518     15.534     16.718     18.152     19.794     16.303    
21234.2    6.251e+12  15.8       283.4      1.171e+06  12.70      5.032      6.293      6.846      7.594      8.547      9.671      10.975     12.489     13.964     11.854    
21236.2    5.800e+12  15.8       291.7      1.148e+06  12.70      12.645     17.057     18.576     19.295     19.692     19.265     18.692     17.760     16.056     10.311    
21379.2    5.768e+12  15.8       291.7      1.148e+06  12.70      14.669     18.759     19.504     19.544     19.269     18.804     18.199     17.416     16.000     10.549    
22795.2    5.770e+12  15.8       291.7      1.148e+06  12.70      14.979     18.338     18.692     18.706     18.645     18.549     18.428     18.258     17.637     12.249    
23620.8    5.762e+12  15.8       291.7      1.148e+06  12.70      15.355     18.338     18.463     18.387     18.322     18.281     18.284     18.352     18.198     13.117    
24258.2    5.647e+12  15.8       283.2      1.172e+06  12.70      13.158     15.663     16.046     16.464     16.983     17.554     18.174     18.872     19.544     14.469    
24260.2    6.315e+12  15.8       291.7      1.148e+06  12.70      3.500      5.369      6.545      7.563      8.486      9.284      9.874      10.149     9.519      6.764     
24403.2    6.268e+12  15.8       291.7      1.148e+06  12.70      5.043      7.093      7.880      8.339      8.672      8.933      9.112      9.112      8.602      6.269     
29659.2    6.094e+12  15.8       291.7      1.148e+06  12.70      7.057      8.546      8.637      8.601      8.569      8.557      8.568      8.588      8.450      6.807     
31540.8    6.042e+12  15.8       291.7      1.148e+06  12.70      7.353      8.549      8.518      8.505      8.568      8.688      8.870      9.143      9.484      7.992     
32276.6    5.879e+12  15.8       281.1      1.178e+06  12.70      6.222      7.197      7.292      7.505      7.832      8.230      8.704      9.297      9.938      8.758     
32278.6    6.512e+12  15.8       291.7      1.146e+06  12.70      4.243      6.331      7.731      8.994      10.146     11.117     11.796     12.083     11.385     7.826     
32421.6    6.471e+12  15.8       291.7      1.146e+06  12.70      6.125      8.392      9.332      9.923      10.354     10.666     10.880     10.780     10.192     7.142     
35877.6    6.498e+12  15.8       291.7      1.146e+06  12.70      7.990      9.759      9.951      9.947      9.929      9.932      9.959      10.048     9.810      7.397     
37677.6    6.474e+12  15.8       291.7      1.146e+06  12.70      8.421      9.901      9.939      9.872      9.814      9.780      9.774      9.797      9.712      7.532     
39432      6.429e+12  15.8       291.7      1.146e+06  12.70      8.626      9.777      9.709      9.702      9.791      9.946      10.164     10.486     10.893     8.898     
40375.2    6.260e+12  15.8       281.2      1.175e+06  12.70      6.530      7.375      7.487      7.774      8.199      8.714      9.320      10.075     10.994     9.425     
