# ===============================================================================================================================================================================
# TIME     FASTF      PCOOL      TCOOL      GKL        PITCH      Q1         Q2         Q3         Q4         Q5         Q6         Q7         Q8         Q9         Q10       
# (h)      (n/cmWs)   (MPa)      (Celsius)  (kg/s)     (mm)       (kW/m)     (kW/m)     (kW/m)     (kW/m)     (kW/m)     (kW/m)     (kW/m)     (kW/m)     (kW/m)     (kW/m)    
# ===============================================================================================================================================================================
0          4.464e+12  15.8       291.7      1.140e+06  12.70      13.704     20.031     23.444     25.727     27.248     28.045     27.941     26.784     23.519     14.409    
144        4.483e+12  15.8       291.7      1.140e+06  12.70      17.679     23.860     25.851     26.558     26.735     26.552     26.010     24.892     22.160     13.990    
3240       4.593e+12  15.8       291.7      1.140e+06  12.70      20.718     26.607     26.974     26.494     25.985     25.545     25.167     24.711     23.159     15.283    
5880       4.678e+12  15.8       291.7      1.140e+06  12.70      21.565     28.249     27.862     27.012     26.270     25.656     25.181     24.831     23.737     15.713    
6765.6     4.692e+12  15.8       291.7      1.140e+06  12.70      21.743     27.921     27.220     26.430     25.855     25.430     25.163     25.107     24.575     16.488    
7844.6     4.549e+12  15.8       279.2      1.175e+06  12.70      16.318     20.795     20.982     21.425     22.177     23.093     24.171     25.529     26.831     18.726    
7846.6     5.001e+12  15.8       291.7      1.146e+06  12.70      11.750     18.820     22.445     25.192     27.205     28.362     28.462     27.142     23.415     14.126    
7989.6     5.001e+12  15.8       291.7      1.146e+06  12.70      15.371     22.730     25.036     26.208     26.806     26.936     26.536     25.309     22.225     13.878    
11445.6    5.139e+12  15.8       291.7      1.146e+06  12.70      18.520     24.335     24.639     24.405     24.188     24.051     23.975     23.812     22.612     15.692    
13605.6    5.213e+12  15.8       291.7      1.146e+06  12.70      19.642     24.838     24.555     24.041     23.647     23.377     23.228     23.148     22.379     16.173    
14834.4    5.240e+12  15.8       291.7      1.146e+06  12.70      19.646     24.124     23.593     23.132     22.910     22.868     23.033     23.488     23.724     17.875    
16328.6    5.041e+12  15.8       275.2      1.191e+06  12.70      13.770     16.627     16.808     17.376     18.266     19.355     20.681     22.426     24.563     19.695    
16330.6    5.844e+12  15.8       291.7      1.148e+06  12.70      15.462     21.647     23.738     24.948     25.653     25.829     25.453     24.442     22.169     14.946    
16473.6    5.824e+12  15.8       291.7      1.148e+06  12.70      17.607     23.298     24.254     24.370     24.200     23.812     23.214     22.329     20.531     14.227    
17769.6    5.846e+12  15.8       291.7      1.148e+06  12.70      18.102     22.938     23.356     23.266     23.115     22.914     22.640     22.200     20.943     15.007    
19375.2    5.862e+12  15.8       291.7      1.148e+06  12.70      18.052     21.918     21.950     21.773     21.691     21.690     21.791     22.010     21.885     16.687    
21230.4    5.598e+12  15.8       273.3      1.198e+06  12.70      11.613     13.958     14.436     15.148     16.108     17.235     18.548     20.139     21.961     18.088    
21234.2    5.592e+12  15.8       283.4      1.171e+06  12.70      5.585      6.984      7.599      8.429      9.487      10.735     12.182     13.862     15.500     13.157    
21236.2    5.922e+12  15.8       291.7      1.148e+06  12.70      12.105     16.328     17.783     18.471     18.851     18.442     17.893     17.001     15.370     9.871     
21379.2    5.897e+12  15.8       291.7      1.148e+06  12.70      14.030     17.942     18.655     18.693     18.430     17.985     17.407     16.658     15.304     10.090    
22795.2    5.899e+12  15.8       291.7      1.148e+06  12.70      14.343     17.559     17.898     17.911     17.853     17.761     17.645     17.483     16.888     11.729    
23620.8    5.890e+12  15.8       291.7      1.148e+06  12.70      14.708     17.565     17.685     17.612     17.550     17.511     17.514     17.579     17.431     12.564    
24258.2    5.771e+12  15.8       283.2      1.172e+06  12.70      12.615     15.017     15.384     15.786     16.283     16.830     17.425     18.094     18.738     13.873    
24260.2    6.312e+12  15.8       291.7      1.148e+06  12.70      3.162      4.850      5.913      6.832      7.666      8.386      8.920      9.168      8.599      6.110     
24403.2    6.244e+12  15.8       291.7      1.148e+06  12.70      4.569      6.426      7.139      7.555      7.856      8.093      8.255      8.255      7.793      5.680     
29659.2    6.057e+12  15.8       291.7      1.148e+06  12.70      6.458      7.821      7.904      7.872      7.843      7.831      7.841      7.860      7.733      6.230     
31540.8    5.985e+12  15.8       291.7      1.148e+06  12.70      6.757      7.856      7.828      7.816      7.874      7.984      8.151      8.402      8.716      7.345     
32276.6    5.834e+12  15.8       281.1      1.178e+06  12.70      5.713      6.608      6.696      6.892      7.191      7.557      7.992      8.536      9.125      8.042     
32278.6    6.609e+12  15.8       291.7      1.146e+06  12.70      3.665      5.469      6.679      7.769      8.764      9.603      10.190     10.438     9.835      6.760     
32421.6    6.547e+12  15.8       291.7      1.146e+06  12.70      5.330      7.302      8.120      8.634      9.009      9.280      9.467      9.380      8.868      6.214     
35877.6    6.449e+12  15.8       291.7      1.146e+06  12.70      7.153      8.737      8.909      8.905      8.889      8.892      8.916      8.995      8.782      6.622     
37677.6    6.390e+12  15.8       291.7      1.146e+06  12.70      7.605      8.941      8.976      8.915      8.863      8.832      8.827      8.847      8.771      6.802     
39432      6.330e+12  15.8       291.7      1.146e+06  12.70      7.853      8.900      8.838      8.831      8.913      9.053      9.252      9.545      9.916      8.100     
40375.2    6.164e+12  15.8       281.2      1.175e+06  12.70      5.936      6.704      6.807      7.067      7.454      7.922      8.473      9.160      9.994      8.569     
