# ===============================================================================================================================================================================
# TIME     FASTF      PCOOL      TCOOL      GKL        PITCH      Q1         Q2         Q3         Q4         Q5         Q6         Q7         Q8         Q9         Q10       
# (h)      (n/cmWs)   (MPa)      (Celsius)  (kg/s)     (mm)       (kW/m)     (kW/m)     (kW/m)     (kW/m)     (kW/m)     (kW/m)     (kW/m)     (kW/m)     (kW/m)     (kW/m)    
# ===============================================================================================================================================================================
0          1.558e+13  15.8       291.7      1.140e+06  12.70      3.931      5.746      6.725      7.380      7.816      8.045      8.015      7.683      6.746      4.133     
144        1.504e+13  15.8       291.7      1.140e+06  12.70      5.304      7.158      7.755      7.967      8.021      7.966      7.803      7.468      6.648      4.197     
3240       8.921e+12  15.8       291.7      1.140e+06  12.70      10.842     13.924     14.116     13.865     13.598     13.368     13.170     12.932     12.119     7.998     
5880       6.248e+12  15.8       291.7      1.140e+06  12.70      16.514     21.632     21.336     20.685     20.117     19.646     19.283     19.015     18.177     12.033    
6765.6     6.001e+12  15.8       291.7      1.140e+06  12.70      17.355     22.287     21.727     21.096     20.637     20.299     20.085     20.040     19.616     13.161    
7844.6     5.686e+12  15.8       279.2      1.175e+06  12.70      13.253     16.890     17.041     17.401     18.012     18.756     19.631     20.734     21.792     15.209    
7846.6     6.277e+12  15.8       291.7      1.146e+06  12.70      7.455      11.941     14.240     15.984     17.261     17.995     18.058     17.221     14.856     8.963     
7989.6     6.260e+12  15.8       291.7      1.146e+06  12.70      9.843      14.555     16.032     16.783     17.165     17.249     16.992     16.207     14.232     8.887     
11445.6    6.235e+12  15.8       291.7      1.146e+06  12.70      12.449     16.357     16.562     16.405     16.259     16.166     16.116     16.006     15.199     10.548    
13605.6    6.237e+12  15.8       291.7      1.146e+06  12.70      13.527     17.106     16.911     16.557     16.286     16.100     15.997     15.942     15.412     11.138    
14834.4    6.230e+12  15.8       291.7      1.146e+06  12.70      13.711     16.837     16.466     16.144     15.989     15.960     16.075     16.393     16.557     12.475    
16328.6    5.949e+12  15.8       275.2      1.191e+06  12.70      9.708      11.722     11.850     12.251     12.878     13.646     14.580     15.811     17.317     13.885    
16330.6    6.657e+12  15.8       291.7      1.148e+06  12.70      13.210     18.493     20.280     21.313     21.916     22.067     21.745     20.882     18.940     12.769    
16473.6    6.629e+12  15.8       291.7      1.148e+06  12.70      15.103     19.983     20.804     20.903     20.757     20.424     19.912     19.152     17.610     12.203    
17769.6    6.626e+12  15.8       291.7      1.148e+06  12.70      15.627     19.801     20.163     20.084     19.954     19.781     19.544     19.164     18.080     12.955    
19375.2    6.611e+12  15.8       291.7      1.148e+06  12.70      15.704     19.068     19.096     18.941     18.870     18.869     18.957     19.147     19.039     14.516    
21230.4    6.276e+12  15.8       273.3      1.198e+06  12.70      10.135     12.182     12.599     13.220     14.058     15.041     16.188     17.576     19.166     15.785    
21234.2    6.270e+12  15.8       283.4      1.171e+06  12.70      4.869      6.089      6.624      7.348      8.270      9.358      10.620     12.084     13.512     11.469    
21236.2    6.802e+12  15.8       291.7      1.148e+06  12.70      9.963      13.439     14.636     15.202     15.515     15.178     14.726     13.992     12.650     8.124     
21379.2    6.768e+12  15.8       291.7      1.148e+06  12.70      11.681     14.938     15.531     15.563     15.345     14.974     14.492     13.869     12.741     8.400     
22795.2    6.726e+12  15.8       291.7      1.148e+06  12.70      12.091     14.802     15.088     15.099     15.050     14.972     14.875     14.738     14.236     9.887     
23620.8    6.688e+12  15.8       291.7      1.148e+06  12.70      12.491     14.917     15.019     14.957     14.904     14.871     14.873     14.929     14.803     10.670    
24258.2    6.534e+12  15.8       283.2      1.172e+06  12.70      10.715     12.755     13.067     13.408     13.831     14.296     14.800     15.369     15.916     11.783    
24260.2    7.167e+12  15.8       291.7      1.148e+06  12.70      4.330      6.641      8.097      9.356      10.498     11.484     12.215     12.555     11.775     8.367     
24403.2    7.098e+12  15.8       291.7      1.148e+06  12.70      6.173      8.684      9.647      10.208     10.616     10.936     11.155     11.155     10.530     7.675     
29659.2    6.867e+12  15.8       291.7      1.148e+06  12.70      8.375      10.143     10.251     10.208     10.170     10.155     10.168     10.193     10.029     8.079     
31540.8    6.786e+12  15.8       291.7      1.148e+06  12.70      8.640      10.045     10.009     9.993      10.068     10.208     10.422     10.743     11.145     9.391     
32276.6    6.610e+12  15.8       281.1      1.178e+06  12.70      7.340      8.490      8.602      8.854      9.239      9.709      10.268     10.967     11.723     10.332    
32278.6    7.492e+12  15.8       291.7      1.146e+06  12.70      4.167      6.219      7.594      8.834      9.965      10.919     11.587     11.869     11.183     7.687     
32421.6    7.418e+12  15.8       291.7      1.146e+06  12.70      6.027      8.256      9.182      9.763      10.187     10.494     10.705     10.607     10.028     7.027     
35877.6    7.240e+12  15.8       291.7      1.146e+06  12.70      7.982      9.750      9.942      9.937      9.919      9.922      9.950      10.038     9.800      7.390     
37677.6    7.160e+12  15.8       291.7      1.146e+06  12.70      8.429      9.911      9.949      9.882      9.824      9.790      9.784      9.807      9.722      7.540     
39432      7.057e+12  15.8       291.7      1.146e+06  12.70      8.650      9.804      9.736      9.728      9.818      9.973      10.192     10.515     10.923     8.923     
40375.2    6.862e+12  15.8       281.2      1.175e+06  12.70      6.547      7.395      7.508      7.795      8.222      8.738      9.346      10.103     11.024     9.451     
