# ===============================================================================================================================================================================
# TIME     FASTF      PCOOL      TCOOL      GKL        PITCH      Q1         Q2         Q3         Q4         Q5         Q6         Q7         Q8         Q9         Q10       
# (h)      (n/cmWs)   (MPa)      (Celsius)  (kg/s)     (mm)       (kW/m)     (kW/m)     (kW/m)     (kW/m)     (kW/m)     (kW/m)     (kW/m)     (kW/m)     (kW/m)     (kW/m)    
# ===============================================================================================================================================================================
0          5.204e+12  15.8       291.7      1.140e+06  12.70      12.709     18.576     21.742     23.859     25.269     26.008     25.912     24.839     21.811     13.363    
144        5.229e+12  15.8       291.7      1.140e+06  12.70      16.250     21.931     23.761     24.411     24.574     24.406     23.907     22.880     20.369     12.859    
3240       5.223e+12  15.8       291.7      1.140e+06  12.70      19.300     24.786     25.128     24.681     24.207     23.797     23.445     23.020     21.574     14.237    
5880       5.249e+12  15.8       291.7      1.140e+06  12.70      20.143     26.386     26.025     25.231     24.538     23.964     23.521     23.193     22.171     14.677    
6765.6     5.232e+12  15.8       291.7      1.140e+06  12.70      20.381     26.172     25.515     24.775     24.236     23.838     23.587     23.534     23.036     15.456    
7844.6     5.031e+12  15.8       279.2      1.175e+06  12.70      15.527     19.787     19.964     20.386     21.102     21.974     22.999     24.291     25.530     17.818    
7846.6     4.911e+12  15.8       291.7      1.146e+06  12.70      12.824     20.541     24.497     27.495     29.692     30.955     31.064     29.623     25.555     15.418    
7989.6     4.908e+12  15.8       291.7      1.146e+06  12.70      16.724     24.731     27.240     28.516     29.166     29.307     28.872     27.538     24.182     15.100    
11445.6    5.017e+12  15.8       291.7      1.146e+06  12.70      19.808     26.026     26.352     26.102     25.870     25.723     25.642     25.467     24.183     16.783    
13605.6    5.074e+12  15.8       291.7      1.146e+06  12.70      20.735     26.220     25.922     25.378     24.963     24.678     24.521     24.436     23.624     17.073    
14834.4    5.087e+12  15.8       291.7      1.146e+06  12.70      20.653     25.360     24.802     24.317     24.084     24.040     24.214     24.691     24.939     18.791    
16328.6    4.885e+12  15.8       275.2      1.191e+06  12.70      14.493     17.501     17.691     18.290     19.226     20.373     21.768     23.605     25.855     20.730    
16330.6    5.555e+12  15.8       291.7      1.148e+06  12.70      17.153     24.014     26.334     27.676     28.458     28.654     28.236     27.115     24.594     16.580    
16473.6    5.534e+12  15.8       291.7      1.148e+06  12.70      19.488     25.786     26.845     26.973     26.785     26.355     25.694     24.714     22.724     15.746    
17769.6    5.562e+12  15.8       291.7      1.148e+06  12.70      19.931     25.256     25.716     25.616     25.450     25.229     24.928     24.443     23.059     16.523    
19375.2    5.573e+12  15.8       291.7      1.148e+06  12.70      19.816     24.060     24.095     23.900     23.810     23.810     23.920     24.160     24.023     18.317    
21230.4    5.306e+12  15.8       273.3      1.198e+06  12.70      12.768     15.346     15.871     16.654     17.709     18.948     20.392     22.141     24.144     19.885    
21234.2    5.295e+12  15.8       283.4      1.171e+06  12.70      6.145      7.685      8.361      9.274      10.438     11.812     13.404     15.253     17.054     14.477    
21236.2    6.663e+12  15.8       291.7      1.148e+06  12.70      11.166     15.062     16.404     17.039     17.389     17.012     16.506     15.683     14.179     9.105     
21379.2    6.636e+12  15.8       291.7      1.148e+06  12.70      12.764     16.323     16.971     17.006     16.767     16.362     15.836     15.154     13.922     9.179     
22795.2    6.570e+12  15.8       291.7      1.148e+06  12.70      13.168     16.120     16.432     16.443     16.390     16.305     16.199     16.050     15.504     10.768    
23620.8    6.521e+12  15.8       291.7      1.148e+06  12.70      13.554     16.187     16.297     16.230     16.173     16.137     16.140     16.200     16.064     11.579    
24258.2    6.361e+12  15.8       283.2      1.172e+06  12.70      11.743     13.979     14.321     14.695     15.158     15.667     16.220     16.844     17.443     12.914    
24260.2    5.699e+12  15.8       291.7      1.148e+06  12.70      1.791      2.747      3.349      3.869      4.342      4.750      5.052      5.193      4.870      3.461     
24403.2    5.521e+12  15.8       291.7      1.148e+06  12.70      2.665      3.749      4.164      4.407      4.583      4.721      4.815      4.815      4.546      3.313     
29659.2    5.007e+12  15.8       291.7      1.148e+06  12.70      4.155      5.033      5.086      5.065      5.046      5.039      5.045      5.058      4.976      4.009     
31540.8    4.821e+12  15.8       291.7      1.148e+06  12.70      4.545      5.284      5.265      5.257      5.296      5.370      5.482      5.651      5.862      4.940     
32276.6    4.682e+12  15.8       281.1      1.178e+06  12.70      3.807      4.404      4.462      4.592      4.792      5.036      5.326      5.688      6.080      5.359     
32278.6    5.986e+12  15.8       291.7      1.146e+06  12.70      2.362      3.525      4.305      5.008      5.649      6.190      6.568      6.728      6.339      4.357     
32421.6    5.903e+12  15.8       291.7      1.146e+06  12.70      3.502      4.798      5.335      5.673      5.919      6.098      6.220      6.163      5.827      4.083     
35877.6    5.736e+12  15.8       291.7      1.146e+06  12.70      4.940      6.035      6.153      6.151      6.140      6.141      6.158      6.213      6.066      4.574     
37677.6    5.661e+12  15.8       291.7      1.146e+06  12.70      5.378      6.323      6.348      6.305      6.268      6.246      6.242      6.257      6.203      4.810     
39432      5.578e+12  15.8       291.7      1.146e+06  12.70      5.687      6.445      6.400      6.395      6.454      6.556      6.700      6.912      7.181      5.866     
40375.2    5.445e+12  15.8       281.2      1.175e+06  12.70      4.287      4.842      4.916      5.104      5.383      5.721      6.119      6.615      7.218      6.189     
