# ===============================================================================================================================================================================
# TIME     FASTF      PCOOL      TCOOL      GKL        PITCH      Q1         Q2         Q3         Q4         Q5         Q6         Q7         Q8         Q9         Q10       
# (h)      (n/cmWs)   (MPa)      (Celsius)  (kg/s)     (mm)       (kW/m)     (kW/m)     (kW/m)     (kW/m)     (kW/m)     (kW/m)     (kW/m)     (kW/m)     (kW/m)     (kW/m)    
# ===============================================================================================================================================================================
0          4.723e+12  15.8       291.7      1.140e+06  12.70      14.892     21.767     25.476     27.957     29.610     30.476     30.363     29.106     25.557     15.658    
144        4.752e+12  15.8       291.7      1.140e+06  12.70      19.273     26.011     28.182     28.953     29.146     28.946     28.355     27.137     24.158     15.251    
3240       4.897e+12  15.8       291.7      1.140e+06  12.70      21.984     28.233     28.622     28.113     27.573     27.106     26.705     26.222     24.574     16.217    
5880       4.969e+12  15.8       291.7      1.140e+06  12.70      22.501     29.475     29.071     28.184     27.410     26.769     26.274     25.908     24.767     16.395    
6765.6     4.992e+12  15.8       291.7      1.140e+06  12.70      22.480     28.867     28.142     27.326     26.731     26.293     26.016     25.958     25.408     17.047    
7844.6     4.846e+12  15.8       279.2      1.175e+06  12.70      16.675     21.251     21.441     21.894     22.663     23.599     24.700     26.088     27.418     19.136    
7846.6     5.585e+12  15.8       291.7      1.146e+06  12.70      7.390      11.836     14.115     15.843     17.109     17.837     17.900     17.069     14.725     8.884     
7989.6     5.576e+12  15.8       291.7      1.146e+06  12.70      9.767      14.443     15.908     16.653     17.033     17.115     16.861     16.082     14.122     8.818     
11445.6    5.541e+12  15.8       291.7      1.146e+06  12.70      12.313     16.178     16.380     16.225     16.081     15.989     15.939     15.831     15.033     10.432    
13605.6    5.542e+12  15.8       291.7      1.146e+06  12.70      13.291     16.806     16.615     16.267     16.000     15.818     15.717     15.663     15.143     10.943    
14834.4    5.528e+12  15.8       291.7      1.146e+06  12.70      13.459     16.527     16.163     15.847     15.695     15.667     15.780     16.091     16.253     12.246    
16328.6    5.293e+12  15.8       275.2      1.191e+06  12.70      9.556      11.539     11.664     12.059     12.676     13.432     14.352     15.563     17.046     13.668    
16330.6    5.688e+12  15.8       291.7      1.148e+06  12.70      16.070     22.498     24.671     25.929     26.662     26.845     26.454     25.403     23.041     15.533    
16473.6    5.669e+12  15.8       291.7      1.148e+06  12.70      18.303     24.219     25.213     25.333     25.157     24.753     24.132     23.211     21.342     14.789    
17769.6    5.699e+12  15.8       291.7      1.148e+06  12.70      18.794     23.815     24.249     24.155     23.998     23.790     23.506     23.049     21.744     15.581    
19375.2    5.723e+12  15.8       291.7      1.148e+06  12.70      18.733     22.745     22.778     22.594     22.509     22.509     22.613     22.840     22.710     17.316    
21230.4    5.480e+12  15.8       273.3      1.198e+06  12.70      12.056     14.491     14.987     15.726     16.722     17.892     19.255     20.906     22.798     18.777    
21234.2    5.471e+12  15.8       283.4      1.171e+06  12.70      5.788      7.238      7.875      8.736      9.832      11.125     12.625     14.367     16.064     13.636    
21236.2    5.913e+12  15.8       291.7      1.148e+06  12.70      11.346     15.305     16.668     17.313     17.670     17.286     16.772     15.936     14.407     9.252     
21379.2    5.887e+12  15.8       291.7      1.148e+06  12.70      13.270     16.970     17.644     17.680     17.432     17.011     16.464     15.756     14.474     9.543     
22795.2    5.885e+12  15.8       291.7      1.148e+06  12.70      13.717     16.793     17.117     17.129     17.074     16.986     16.875     16.720     16.151     11.217    
23620.8    5.879e+12  15.8       291.7      1.148e+06  12.70      14.136     16.882     16.997     16.927     16.867     16.829     16.832     16.895     16.753     12.075    
24258.2    5.758e+12  15.8       283.2      1.172e+06  12.70      12.118     14.426     14.778     15.164     15.642     16.167     16.738     17.381     18.000     13.326    
24260.2    6.284e+12  15.8       291.7      1.148e+06  12.70      4.595      7.048      8.594      9.930      11.142     12.189     12.964     13.325     12.497     8.881     
24403.2    6.238e+12  15.8       291.7      1.148e+06  12.70      6.509      9.156      10.172     10.764     11.193     11.531     11.762     11.762     11.103     8.092     
29659.2    6.205e+12  15.8       291.7      1.148e+06  12.70      8.544      10.348     10.458     10.414     10.376     10.360     10.374     10.399     10.232     8.242     
31540.8    6.178e+12  15.8       291.7      1.148e+06  12.70      8.761      10.186     10.150     10.134     10.209     10.352     10.569     10.894     11.301     9.523     
32276.6    6.029e+12  15.8       281.1      1.178e+06  12.70      7.456      8.625      8.739      8.995      9.386      9.864      10.432     11.141     11.909     10.496    
32278.6    6.700e+12  15.8       291.7      1.146e+06  12.70      3.782      5.644      6.892      8.018      9.044      9.911      10.516     10.772     10.149     6.977     
32421.6    6.648e+12  15.8       291.7      1.146e+06  12.70      5.486      7.516      8.359      8.888      9.274      9.554      9.745      9.656      9.129      6.397     
35877.6    6.589e+12  15.8       291.7      1.146e+06  12.70      7.272      8.883      9.057      9.053      9.037      9.040      9.064      9.145      8.928      6.732     
37677.6    6.545e+12  15.8       291.7      1.146e+06  12.70      7.699      9.052      9.087      9.026      8.973      8.942      8.936      8.957      8.880      6.887     
39432      6.489e+12  15.8       291.7      1.146e+06  12.70      7.919      8.975      8.912      8.906      8.988      9.129      9.330      9.626      9.999      8.168     
40375.2    6.320e+12  15.8       281.2      1.175e+06  12.70      5.984      6.758      6.861      7.124      7.514      7.985      8.541      9.233      10.074     8.637     
