# ===============================================================================================================================================================================
# TIME     FASTF      PCOOL      TCOOL      GKL        PITCH      Q1         Q2         Q3         Q4         Q5         Q6         Q7         Q8         Q9         Q10       
# (h)      (n/cmWs)   (MPa)      (Celsius)  (kg/s)     (mm)       (kW/m)     (kW/m)     (kW/m)     (kW/m)     (kW/m)     (kW/m)     (kW/m)     (kW/m)     (kW/m)     (kW/m)    
# ===============================================================================================================================================================================
0          4.219e+12  15.8       291.7      1.148e+06  12.70      17.145     27.046     29.891     31.239     31.958     32.040     31.442     29.970     26.184     14.090    
144        4.251e+12  15.8       291.7      1.148e+06  12.70      20.684     30.462     31.901     31.521     30.977     30.207     29.211     27.808     24.639     13.747    
1440       4.329e+12  15.8       291.7      1.148e+06  12.70      21.626     30.184     30.590     30.051     29.494     28.934     28.328     27.500     25.110     14.644    
3045.6     4.404e+12  15.8       291.7      1.148e+06  12.70      21.987     29.005     28.672     28.013     27.548     27.244     27.132     27.260     26.810     17.217    
4900.8     4.258e+12  15.8       273.3      1.198e+06  12.70      13.915     17.989     18.430     19.079     20.040     21.194     22.569     24.305     26.071     18.239    
4904.6     4.257e+12  15.8       283.4      1.171e+06  12.70      6.545      8.797      9.484      10.385     11.550     12.919     14.504     16.361     18.169     12.900    
4906.6     4.692e+12  15.8       291.7      1.148e+06  12.70      20.793     30.509     32.718     33.162     32.437     31.135     29.327     27.004     23.350     13.414    
5049.6     4.710e+12  15.8       291.7      1.148e+06  12.70      23.724     32.841     33.779     32.775     31.436     29.841     28.087     26.087     22.955     13.583    
6465.6     4.779e+12  15.8       291.7      1.148e+06  12.70      23.117     30.384     30.575     29.959     29.227     28.453     27.647     26.734     24.887     15.633    
7291.2     4.808e+12  15.8       291.7      1.148e+06  12.70      23.268     29.834     29.598     28.920     28.259     27.643     27.089     26.580     25.444     16.637    
7928.6     4.716e+12  15.8       283.2      1.172e+06  12.70      19.879     25.365     25.775     26.023     26.388     26.798     27.234     27.692     27.492     18.637    
7930.6     5.176e+12  15.8       291.7      1.142e+06  12.70      13.007     19.561     23.082     25.930     28.201     29.776     30.554     29.904     27.226     16.772    
8073.6     5.175e+12  15.8       291.7      1.142e+06  12.70      17.152     23.886     25.921     26.946     27.469     27.881     27.370     26.509     24.229     15.252    
12969.6    5.368e+12  15.8       291.7      1.142e+06  12.70      19.932     25.596     26.135     25.582     25.048     24.519     23.988     23.293     21.639     14.311    
15621.6    5.422e+12  15.8       291.7      1.142e+06  12.70      19.741     23.825     23.524     23.189     23.108     23.220     23.504     23.908     23.737     16.713    
16407.8    5.277e+12  15.8       281.2      1.172e+06  12.70      16.212     19.488     19.678     20.115     20.870     21.835     22.998     24.370     25.544     18.667    
16409.8    5.756e+12  15.8       291.7      1.148e+06  12.70      7.979      11.107     13.200     15.586     18.157     20.739     23.162     25.238     26.641     21.339    
16552.8    5.760e+12  15.8       291.7      1.148e+06  12.70      11.876     15.312     16.558     17.762     18.973     20.152     21.275     22.291     22.899     18.421    
21808.8    5.872e+12  15.8       291.7      1.148e+06  12.70      16.866     19.967     19.868     19.655     19.449     19.270     19.136     19.042     18.717     15.207    
23690.4    5.887e+12  15.8       291.7      1.148e+06  12.70      16.705     19.049     18.787     18.627     18.615     18.700     18.894     19.258     19.864     16.575    
24426.2    5.715e+12  15.8       281.1      1.178e+06  12.70      13.533     15.385     15.492     15.900     16.527     17.282     18.173     19.292     20.558     18.136    
24428.2    6.391e+12  15.8       291.7      1.144e+06  12.70      6.761      10.216     12.456     14.509     16.415     18.056     19.260     19.863     18.648     12.386    
24571.2    6.369e+12  15.8       291.7      1.144e+06  12.70      9.671      13.448     14.916     15.846     16.541     17.061     17.380     17.346     16.287     10.960    
28027.2    6.323e+12  15.8       291.7      1.144e+06  12.70      12.473     15.334     15.633     15.464     15.401     15.382     15.414     15.455     15.054     10.996    
30187.2    6.295e+12  15.8       291.7      1.144e+06  12.70      13.002     15.311     15.189     15.029     14.918     14.848     14.825     14.854     14.621     11.085    
31490.4    6.271e+12  15.8       291.7      1.144e+06  12.70      13.013     14.864     14.700     14.612     14.654     14.768     14.957     15.285     15.959     12.394    
31911.8    6.170e+12  15.8       286.4      1.160e+06  12.70      11.074     12.684     12.774     13.054     13.500     14.031     14.641     15.395     16.177     13.165    
31913.8    6.583e+12  15.8       291.7      1.146e+06  12.70      0.654      0.955      1.171      1.370      1.555      1.715      1.834      1.895      1.804      1.432     
32056.8    6.435e+12  15.8       291.7      1.146e+06  12.70      1.000      1.345      1.505      1.611      1.693      1.757      1.799      1.804      1.725      1.397     
35512.8    6.222e+12  15.8       291.7      1.146e+06  12.70      1.492      1.811      1.863      1.877      1.887      1.902      1.922      1.942      1.926      1.660     
37312.8    6.079e+12  15.8       291.7      1.146e+06  12.70      1.681      1.971      1.996      1.997      1.999      2.006      2.019      2.038      2.053      1.800     
39067.2    5.969e+12  15.8       291.7      1.146e+06  12.70      1.842      2.085      2.087      2.101      2.136      2.186      2.252      2.342      2.453      2.267     
40010.4    5.778e+12  15.8       281.2      1.175e+06  12.70      1.381      1.554      1.587      1.657      1.759      1.882      2.027      2.208      2.429      2.359     
