# ===============================================================================================================================================================================
# TIME     FASTF      PCOOL      TCOOL      GKL        PITCH      Q1         Q2         Q3         Q4         Q5         Q6         Q7         Q8         Q9         Q10       
# (h)      (n/cmWs)   (MPa)      (Celsius)  (kg/s)     (mm)       (kW/m)     (kW/m)     (kW/m)     (kW/m)     (kW/m)     (kW/m)     (kW/m)     (kW/m)     (kW/m)     (kW/m)    
# ===============================================================================================================================================================================
0          4.341e+12  15.8       291.7      1.148e+06  12.70      16.355     25.801     28.514     29.801     30.486     30.564     29.994     28.590     24.978     13.441    
144        4.371e+12  15.8       291.7      1.148e+06  12.70      19.745     29.079     30.452     30.090     29.571     28.836     27.884     26.545     23.520     13.123    
1440       4.421e+12  15.8       291.7      1.148e+06  12.70      20.788     29.015     29.405     28.887     28.352     27.813     27.231     26.435     24.138     14.077    
3045.6     4.479e+12  15.8       291.7      1.148e+06  12.70      21.257     28.042     27.720     27.083     26.633     26.340     26.231     26.355     25.920     16.645    
4900.8     4.314e+12  15.8       273.3      1.198e+06  12.70      13.525     17.485     17.913     18.545     19.479     20.600     21.937     23.624     25.341     17.728    
4904.6     4.310e+12  15.8       283.4      1.171e+06  12.70      6.364      8.554      9.223      10.098     11.231     12.563     14.104     15.910     17.668     12.544    
4906.6     4.657e+12  15.8       291.7      1.148e+06  12.70      20.552     30.156     32.340     32.779     32.062     30.775     28.988     26.692     23.080     13.258    
5049.6     4.673e+12  15.8       291.7      1.148e+06  12.70      23.425     32.428     33.354     32.363     31.041     29.466     27.734     25.759     22.667     13.412    
6465.6     4.734e+12  15.8       291.7      1.148e+06  12.70      22.857     30.042     30.231     29.622     28.899     28.133     27.336     26.433     24.607     15.457    
7291.2     4.762e+12  15.8       291.7      1.148e+06  12.70      23.027     29.524     29.291     28.620     27.966     27.357     26.808     26.304     25.180     16.464    
7928.6     4.672e+12  15.8       283.2      1.172e+06  12.70      19.690     25.124     25.530     25.776     26.137     26.543     26.975     27.428     27.230     18.460    
7930.6     5.112e+12  15.8       291.7      1.142e+06  12.70      13.234     19.902     23.485     26.383     28.693     30.295     31.087     30.426     27.701     17.065    
8073.6     5.114e+12  15.8       291.7      1.142e+06  12.70      17.438     24.284     26.354     27.396     27.927     28.346     27.826     26.951     24.633     15.506    
12969.6    5.354e+12  15.8       291.7      1.142e+06  12.70      20.116     25.832     26.377     25.818     25.279     24.746     24.209     23.508     21.839     14.443    
15621.6    5.426e+12  15.8       291.7      1.142e+06  12.70      19.872     23.983     23.680     23.342     23.261     23.374     23.659     24.067     23.894     16.823    
16407.8    5.283e+12  15.8       281.2      1.172e+06  12.70      16.311     19.606     19.797     20.237     20.997     21.968     23.137     24.517     25.699     18.780    
16409.8    5.771e+12  15.8       291.7      1.148e+06  12.70      8.020      11.164     13.267     15.666     18.250     20.844     23.280     25.366     26.777     21.448    
16552.8    5.777e+12  15.8       291.7      1.148e+06  12.70      11.930     15.382     16.634     17.843     19.059     20.244     21.372     22.392     23.003     18.505    
21808.8    5.896e+12  15.8       291.7      1.148e+06  12.70      16.798     19.886     19.787     19.576     19.370     19.193     19.058     18.965     18.642     15.146    
23690.4    5.912e+12  15.8       291.7      1.148e+06  12.70      16.619     18.951     18.690     18.531     18.519     18.604     18.797     19.159     19.762     16.490    
24426.2    5.748e+12  15.8       281.1      1.178e+06  12.70      13.468     15.312     15.418     15.824     16.448     17.200     18.087     19.200     20.461     18.049    
24428.2    6.410e+12  15.8       291.7      1.144e+06  12.70      7.113      10.747     13.104     15.264     17.269     18.996     20.262     20.896     19.618     13.030    
24571.2    6.394e+12  15.8       291.7      1.144e+06  12.70      10.144     14.105     15.645     16.621     17.350     17.895     18.230     18.195     17.084     11.496    
28027.2    6.400e+12  15.8       291.7      1.144e+06  12.70      12.926     15.891     16.201     16.026     15.960     15.941     15.974     16.017     15.601     11.395    
30187.2    6.390e+12  15.8       291.7      1.144e+06  12.70      13.408     15.789     15.663     15.498     15.383     15.311     15.287     15.318     15.077     11.431    
31490.4    6.370e+12  15.8       291.7      1.144e+06  12.70      13.377     15.280     15.111     15.021     15.064     15.181     15.375     15.713     16.405     12.740    
31911.8    6.273e+12  15.8       286.4      1.160e+06  12.70      11.387     13.042     13.135     13.422     13.881     14.427     15.054     15.830     16.633     13.537    
31913.8    6.596e+12  15.8       291.7      1.146e+06  12.70      0.653      0.953      1.169      1.367      1.552      1.712      1.830      1.891      1.800      1.429     
32056.8    6.431e+12  15.8       291.7      1.146e+06  12.70      1.001      1.347      1.507      1.613      1.695      1.759      1.802      1.806      1.727      1.399     
35512.8    6.100e+12  15.8       291.7      1.146e+06  12.70      1.509      1.831      1.884      1.898      1.909      1.924      1.944      1.964      1.948      1.679     
37312.8    5.906e+12  15.8       291.7      1.146e+06  12.70      1.715      2.011      2.037      2.037      2.040      2.047      2.060      2.079      2.094      1.836     
39067.2    5.705e+12  15.8       291.7      1.146e+06  12.70      1.898      2.149      2.151      2.165      2.201      2.253      2.321      2.413      2.528      2.336     
40010.4    5.570e+12  15.8       281.2      1.175e+06  12.70      1.418      1.597      1.631      1.703      1.807      1.933      2.083      2.269      2.496      2.424     
