# ===============================================================================================================================================================================
# TIME     FASTF      PCOOL      TCOOL      GKL        PITCH      Q1         Q2         Q3         Q4         Q5         Q6         Q7         Q8         Q9         Q10       
# (h)      (n/cmWs)   (MPa)      (Celsius)  (kg/s)     (mm)       (kW/m)     (kW/m)     (kW/m)     (kW/m)     (kW/m)     (kW/m)     (kW/m)     (kW/m)     (kW/m)     (kW/m)    
# ===============================================================================================================================================================================
0          4.447e+12  15.8       291.7      1.148e+06  12.70      10.296     16.242     17.951     18.760     19.192     19.241     18.882     17.998     15.724     8.462     
144        4.450e+12  15.8       291.7      1.148e+06  12.70      12.780     18.822     19.711     19.477     19.141     18.665     18.049     17.182     15.224     8.494     
1440       4.452e+12  15.8       291.7      1.148e+06  12.70      13.793     19.251     19.510     19.166     18.811     18.454     18.068     17.539     16.015     9.340     
3045.6     4.437e+12  15.8       291.7      1.148e+06  12.70      14.579     19.233     19.012     18.575     18.267     18.066     17.991     18.076     17.778     11.417    
4900.8     4.236e+12  15.8       273.3      1.198e+06  12.70      9.214      11.911     12.203     12.633     13.269     14.034     14.944     16.093     17.263     12.077    
4904.6     4.247e+12  15.8       283.4      1.171e+06  12.70      4.302      5.782      6.234      6.826      7.591      8.492      9.534      10.754     11.942     8.479     
4906.6     4.748e+12  15.8       291.7      1.148e+06  12.70      17.600     25.825     27.695     28.071     27.457     26.355     24.825     22.858     19.766     11.354    
5049.6     4.755e+12  15.8       291.7      1.148e+06  12.70      20.357     28.181     28.986     28.124     26.975     25.607     24.102     22.385     19.698     11.655    
6465.6     4.789e+12  15.8       291.7      1.148e+06  12.70      20.224     26.582     26.749     26.211     25.570     24.893     24.188     23.389     21.773     13.677    
7291.2     4.795e+12  15.8       291.7      1.148e+06  12.70      20.547     26.345     26.137     25.538     24.954     24.411     23.922     23.472     22.469     14.692    
7928.6     4.700e+12  15.8       283.2      1.172e+06  12.70      17.510     22.342     22.703     22.922     23.243     23.604     23.989     24.392     24.215     16.416    
7930.6     5.574e+12  15.8       291.7      1.142e+06  12.70      11.317     17.019     20.083     22.561     24.537     25.907     26.584     26.018     23.688     14.593    
8073.6     5.562e+12  15.8       291.7      1.142e+06  12.70      14.908     20.760     22.529     23.420     23.874     24.233     23.789     23.040     21.058     13.256    
12969.6    5.632e+12  15.8       291.7      1.142e+06  12.70      18.271     23.463     23.957     23.450     22.960     22.476     21.989     21.352     19.836     13.118    
15621.6    5.651e+12  15.8       291.7      1.142e+06  12.70      18.331     22.124     21.844     21.533     21.457     21.562     21.825     22.201     22.041     15.519    
16407.8    5.493e+12  15.8       281.2      1.172e+06  12.70      15.093     18.143     18.319     18.726     19.429     20.328     21.410     22.687     23.781     17.379    
16409.8    5.763e+12  15.8       291.7      1.148e+06  12.70      8.412      11.711     13.916     16.433     19.144     21.865     24.420     26.608     28.088     22.498    
16552.8    5.769e+12  15.8       291.7      1.148e+06  12.70      12.472     16.081     17.390     18.654     19.925     21.164     22.343     23.410     24.048     19.346    
21808.8    5.989e+12  15.8       291.7      1.148e+06  12.70      17.673     20.923     20.819     20.596     20.380     20.193     20.051     19.953     19.613     15.935    
23690.4    6.015e+12  15.8       291.7      1.148e+06  12.70      17.485     19.939     19.664     19.497     19.484     19.574     19.776     20.158     20.792     17.349    
24426.2    5.848e+12  15.8       281.1      1.178e+06  12.70      14.184     16.126     16.238     16.665     17.323     18.114     19.048     20.221     21.548     19.009    
24428.2    6.480e+12  15.8       291.7      1.144e+06  12.70      7.567      11.435     13.942     16.240     18.373     20.210     21.558     22.232     20.872     13.864    
24571.2    6.465e+12  15.8       291.7      1.144e+06  12.70      10.757     14.958     16.591     17.626     18.400     18.978     19.332     19.295     18.117     12.191    
28027.2    6.512e+12  15.8       291.7      1.144e+06  12.70      13.508     16.607     16.931     16.748     16.679     16.658     16.693     16.738     16.303     11.908    
30187.2    6.519e+12  15.8       291.7      1.144e+06  12.70      13.927     16.400     16.269     16.097     15.978     15.903     15.878     15.910     15.660     11.873    
31490.4    6.509e+12  15.8       291.7      1.144e+06  12.70      13.828     15.796     15.621     15.528     15.573     15.693     15.894     16.243     16.959     13.170    
31911.8    6.409e+12  15.8       286.4      1.160e+06  12.70      11.769     13.480     13.576     13.873     14.347     14.912     15.560     16.362     17.192     13.991    
31913.8    6.537e+12  15.8       291.7      1.146e+06  12.70      0.988      1.443      1.769      2.070      2.349      2.592      2.771      2.863      2.725      2.163     
32056.8    6.408e+12  15.8       291.7      1.146e+06  12.70      1.507      2.026      2.267      2.427      2.551      2.647      2.711      2.718      2.599      2.105     
35512.8    6.091e+12  15.8       291.7      1.146e+06  12.70      2.226      2.701      2.779      2.800      2.815      2.838      2.867      2.897      2.874      2.476     
37312.8    5.974e+12  15.8       291.7      1.146e+06  12.70      2.493      2.923      2.961      2.962      2.965      2.975      2.995      3.023      3.044      2.669     
39067.2    5.822e+12  15.8       291.7      1.146e+06  12.70      2.724      3.083      3.086      3.106      3.158      3.232      3.330      3.463      3.627      3.351     
40010.4    5.664e+12  15.8       281.2      1.175e+06  12.70      2.047      2.304      2.353      2.458      2.608      2.790      3.006      3.274      3.601      3.498     
