# ===============================================================================================================================================================================
# TIME     FASTF      PCOOL      TCOOL      GKL        PITCH      Q1         Q2         Q3         Q4         Q5         Q6         Q7         Q8         Q9         Q10       
# (h)      (n/cmWs)   (MPa)      (Celsius)  (kg/s)     (mm)       (kW/m)     (kW/m)     (kW/m)     (kW/m)     (kW/m)     (kW/m)     (kW/m)     (kW/m)     (kW/m)     (kW/m)    
# ===============================================================================================================================================================================
0          4.346e+12  15.8       291.7      1.148e+06  12.70      11.633     18.352     20.282     21.197     21.684     21.740     21.334     20.336     17.766     9.561     
144        4.365e+12  15.8       291.7      1.148e+06  12.70      14.334     21.110     22.107     21.844     21.467     20.934     20.243     19.271     17.075     9.527     
1440       4.389e+12  15.8       291.7      1.148e+06  12.70      15.368     21.449     21.737     21.354     20.959     20.561     20.130     19.542     17.844     10.406    
3045.6     4.400e+12  15.8       291.7      1.148e+06  12.70      16.111     21.254     21.009     20.527     20.186     19.963     19.881     19.975     19.645     12.616    
4900.8     4.211e+12  15.8       273.3      1.198e+06  12.70      10.259     13.263     13.588     14.067     14.775     15.626     16.640     17.920     19.222     13.448    
4904.6     4.219e+12  15.8       283.4      1.171e+06  12.70      4.792      6.441      6.945      7.604      8.457      9.460      10.621     11.981     13.304     9.446     
4906.6     5.175e+12  15.8       291.7      1.148e+06  12.70      16.827     24.690     26.478     26.837     26.250     25.197     23.734     21.853     18.897     10.855    
5049.6     5.190e+12  15.8       291.7      1.148e+06  12.70      19.167     26.533     27.291     26.480     25.398     24.109     22.693     21.076     18.546     10.974    
6465.6     5.202e+12  15.8       291.7      1.148e+06  12.70      18.956     24.915     25.072     24.567     23.967     23.331     22.671     21.922     20.408     12.819    
7291.2     5.202e+12  15.8       291.7      1.148e+06  12.70      19.265     24.701     24.506     23.944     23.397     22.887     22.428     22.006     21.066     13.775    
7928.6     5.088e+12  15.8       283.2      1.172e+06  12.70      16.626     21.214     21.557     21.764     22.070     22.412     22.778     23.160     22.993     15.587    
7930.6     5.104e+12  15.8       291.7      1.142e+06  12.70      12.517     18.824     22.212     24.953     27.139     28.654     29.403     28.777     26.200     16.140    
8073.6     5.092e+12  15.8       291.7      1.142e+06  12.70      16.480     22.949     24.905     25.890     26.392     26.788     26.297     25.470     23.279     14.654    
12969.6    5.257e+12  15.8       291.7      1.142e+06  12.70      19.539     25.092     25.620     25.079     24.555     24.036     23.516     22.834     21.213     14.029    
15621.6    5.318e+12  15.8       291.7      1.142e+06  12.70      19.328     23.327     23.032     22.704     22.625     22.735     23.012     23.409     23.241     16.363    
16407.8    5.181e+12  15.8       281.2      1.172e+06  12.70      15.852     19.054     19.240     19.667     20.406     21.350     22.486     23.828     24.976     18.252    
16409.8    5.801e+12  15.8       291.7      1.148e+06  12.70      8.426      11.729     13.939     16.459     19.174     21.900     24.459     26.651     28.133     22.535    
16552.8    5.800e+12  15.8       291.7      1.148e+06  12.70      12.428     16.025     17.329     18.589     19.855     21.090     22.265     23.328     23.964     19.278    
21808.8    5.947e+12  15.8       291.7      1.148e+06  12.70      17.295     20.474     20.372     20.154     19.943     19.760     19.622     19.526     19.193     15.594    
23690.4    5.973e+12  15.8       291.7      1.148e+06  12.70      17.076     19.473     19.204     19.041     19.029     19.116     19.314     19.687     20.306     16.944    
24426.2    5.806e+12  15.8       281.1      1.178e+06  12.70      13.928     15.835     15.945     16.365     17.010     17.788     18.704     19.856     21.159     18.666    
24428.2    6.510e+12  15.8       291.7      1.144e+06  12.70      7.419      11.210     13.669     15.921     18.012     19.813     21.134     21.795     20.462     13.591    
24571.2    6.487e+12  15.8       291.7      1.144e+06  12.70      10.631     14.783     16.397     17.419     18.184     18.755     19.106     19.069     17.905     12.048    
28027.2    6.460e+12  15.8       291.7      1.144e+06  12.70      13.471     16.561     16.884     16.701     16.633     16.612     16.647     16.692     16.258     11.875    
30187.2    6.443e+12  15.8       291.7      1.144e+06  12.70      13.908     16.378     16.247     16.075     15.957     15.882     15.857     15.889     15.639     11.857    
31490.4    6.425e+12  15.8       291.7      1.144e+06  12.70      13.826     15.793     15.618     15.526     15.570     15.691     15.892     16.241     16.956     13.168    
31911.8    6.323e+12  15.8       286.4      1.160e+06  12.70      11.737     13.443     13.538     13.835     14.308     14.870     15.517     16.317     17.145     13.953    
31913.8    6.635e+12  15.8       291.7      1.146e+06  12.70      2.036      2.973      3.646      4.265      4.841      5.340      5.709      5.900      5.615      4.458     
32056.8    6.536e+12  15.8       291.7      1.146e+06  12.70      3.014      4.054      4.535      4.856      5.102      5.295      5.423      5.437      5.199      4.210     
35512.8    6.333e+12  15.8       291.7      1.146e+06  12.70      4.205      5.102      5.249      5.288      5.318      5.360      5.416      5.471      5.428      4.677     
37312.8    6.243e+12  15.8       291.7      1.146e+06  12.70      4.577      5.366      5.435      5.437      5.443      5.462      5.498      5.550      5.588      4.899     
39067.2    6.134e+12  15.8       291.7      1.146e+06  12.70      4.823      5.459      5.465      5.500      5.592      5.724      5.896      6.132      6.422      5.934     
40010.4    5.974e+12  15.8       281.2      1.175e+06  12.70      3.647      4.105      4.193      4.378      4.646      4.971      5.355      5.833      6.416      6.231     
