# ===============================================================================================================================================================================
# TIME     FASTF      PCOOL      TCOOL      GKL        PITCH      Q1         Q2         Q3         Q4         Q5         Q6         Q7         Q8         Q9         Q10       
# (h)      (n/cmWs)   (MPa)      (Celsius)  (kg/s)     (mm)       (kW/m)     (kW/m)     (kW/m)     (kW/m)     (kW/m)     (kW/m)     (kW/m)     (kW/m)     (kW/m)     (kW/m)    
# ===============================================================================================================================================================================
0          4.469e+12  15.8       291.7      1.148e+06  12.70      11.512     18.160     20.070     20.975     21.458     21.513     21.112     20.123     17.581     9.461     
144        4.485e+12  15.8       291.7      1.148e+06  12.70      14.190     20.898     21.885     21.625     21.252     20.724     20.040     19.078     16.903     9.431     
1440       4.504e+12  15.8       291.7      1.148e+06  12.70      15.192     21.204     21.489     21.111     20.720     20.326     19.900     19.319     17.640     10.287    
3045.6     4.510e+12  15.8       291.7      1.148e+06  12.70      15.907     20.985     20.743     20.267     19.930     19.711     19.629     19.722     19.397     12.456    
4900.8     4.309e+12  15.8       273.3      1.198e+06  12.70      10.057     13.002     13.320     13.790     14.484     15.319     16.312     17.567     18.843     13.183    
4904.6     4.319e+12  15.8       283.4      1.171e+06  12.70      4.707      6.327      6.821      7.469      8.307      9.292      10.432     11.767     13.067     9.278     
4906.6     4.825e+12  15.8       291.7      1.148e+06  12.70      17.985     26.390     28.301     28.685     28.057     26.931     25.368     23.358     20.198     11.602    
5049.6     4.835e+12  15.8       291.7      1.148e+06  12.70      20.755     28.731     29.552     28.674     27.503     26.107     24.573     22.823     20.083     11.883    
6465.6     4.867e+12  15.8       291.7      1.148e+06  12.70      20.563     27.028     27.198     26.650     25.999     25.310     24.593     23.781     22.138     13.906    
7291.2     4.877e+12  15.8       291.7      1.148e+06  12.70      20.861     26.747     26.536     25.928     25.335     24.783     24.286     23.830     22.811     14.916    
7928.6     4.782e+12  15.8       283.2      1.172e+06  12.70      17.791     22.700     23.067     23.289     23.615     23.982     24.373     24.782     24.604     16.679    
7930.6     5.355e+12  15.8       291.7      1.142e+06  12.70      11.661     17.537     20.694     23.247     25.283     26.695     27.393     26.810     24.409     15.037    
8073.6     5.344e+12  15.8       291.7      1.142e+06  12.70      15.396     21.439     23.267     24.187     24.656     25.026     24.567     23.794     21.747     13.690    
12969.6    5.466e+12  15.8       291.7      1.142e+06  12.70      18.537     23.805     24.306     23.792     23.295     22.803     22.309     21.663     20.125     13.310    
15621.6    5.512e+12  15.8       291.7      1.142e+06  12.70      18.486     22.310     22.028     21.714     21.638     21.744     22.009     22.388     22.227     15.650    
16407.8    5.371e+12  15.8       281.2      1.172e+06  12.70      15.175     18.240     18.418     18.827     19.534     20.437     21.525     22.809     23.909     17.472    
16409.8    5.875e+12  15.8       291.7      1.148e+06  12.70      8.319      11.581     13.762     16.251     18.932     21.623     24.150     26.314     27.777     22.249    
16552.8    5.884e+12  15.8       291.7      1.148e+06  12.70      12.328     15.895     17.189     18.438     19.695     20.919     22.085     23.139     23.770     19.123    
21808.8    6.125e+12  15.8       291.7      1.148e+06  12.70      17.475     20.688     20.585     20.364     20.151     19.966     19.826     19.729     19.393     15.756    
23690.4    6.156e+12  15.8       291.7      1.148e+06  12.70      17.277     19.702     19.431     19.265     19.253     19.341     19.542     19.919     20.545     17.143    
24426.2    5.981e+12  15.8       281.1      1.178e+06  12.70      14.015     15.933     16.044     16.466     17.116     17.898     18.821     19.979     21.291     18.782    
24428.2    6.561e+12  15.8       291.7      1.144e+06  12.70      7.327      11.071     13.499     15.724     17.789     19.568     20.873     21.526     20.209     13.423    
24571.2    6.552e+12  15.8       291.7      1.144e+06  12.70      10.417     14.484     16.066     17.067     17.817     18.376     18.720     18.684     17.543     11.805    
28027.2    6.609e+12  15.8       291.7      1.144e+06  12.70      13.090     16.092     16.406     16.229     16.162     16.142     16.175     16.219     15.798     11.539    
30187.2    6.618e+12  15.8       291.7      1.144e+06  12.70      13.497     15.895     15.768     15.601     15.486     15.413     15.389     15.420     15.178     11.507    
31490.4    6.610e+12  15.8       291.7      1.144e+06  12.70      13.411     15.320     15.150     15.060     15.103     15.221     15.415     15.754     16.448     12.774    
31911.8    6.508e+12  15.8       286.4      1.160e+06  12.70      11.415     13.075     13.167     13.456     13.916     14.463     15.091     15.870     16.675     13.570    
31913.8    6.726e+12  15.8       291.7      1.146e+06  12.70      0.817      1.193      1.463      1.712      1.943      2.143      2.291      2.368      2.254      1.789     
32056.8    6.530e+12  15.8       291.7      1.146e+06  12.70      1.252      1.684      1.884      2.017      2.120      2.200      2.253      2.259      2.160      1.749     
35512.8    6.198e+12  15.8       291.7      1.146e+06  12.70      1.870      2.269      2.335      2.352      2.365      2.384      2.409      2.434      2.414      2.080     
37312.8    6.042e+12  15.8       291.7      1.146e+06  12.70      2.107      2.470      2.502      2.503      2.505      2.514      2.531      2.554      2.572      2.255     
39067.2    5.850e+12  15.8       291.7      1.146e+06  12.70      2.317      2.623      2.626      2.643      2.687      2.750      2.833      2.946      3.086      2.851     
40010.4    5.690e+12  15.8       281.2      1.175e+06  12.70      1.739      1.958      2.000      2.088      2.216      2.370      2.554      2.782      3.060      2.971     
