# ===============================================================================================================================================================================
# TIME     FASTF      PCOOL      TCOOL      GKL        PITCH      Q1         Q2         Q3         Q4         Q5         Q6         Q7         Q8         Q9         Q10       
# (h)      (n/cmWs)   (MPa)      (Celsius)  (kg/s)     (mm)       (kW/m)     (kW/m)     (kW/m)     (kW/m)     (kW/m)     (kW/m)     (kW/m)     (kW/m)     (kW/m)     (kW/m)    
# ===============================================================================================================================================================================
0          4.179e+12  15.8       291.7      1.148e+06  12.70      15.265     24.082     26.615     27.815     28.455     28.528     27.996     26.685     23.314     12.546    
144        4.208e+12  15.8       291.7      1.148e+06  12.70      18.555     27.327     28.617     28.277     27.789     27.098     26.204     24.946     22.103     12.332    
1440       4.282e+12  15.8       291.7      1.148e+06  12.70      19.515     27.237     27.603     27.117     26.615     26.109     25.562     24.815     22.659     13.214    
3045.6     4.347e+12  15.8       291.7      1.148e+06  12.70      20.012     26.400     26.096     25.497     25.074     24.797     24.695     24.812     24.402     15.671    
4900.8     4.194e+12  15.8       273.3      1.198e+06  12.70      12.686     16.401     16.802     17.395     18.271     19.323     20.576     22.159     23.769     16.629    
4904.6     4.192e+12  15.8       283.4      1.171e+06  12.70      5.949      7.996      8.621      9.440      10.498     11.743     13.184     14.872     16.515     11.726    
4906.6     4.704e+12  15.8       291.7      1.148e+06  12.70      20.381     29.906     32.071     32.506     31.795     30.519     28.747     26.470     22.889     13.148    
5049.6     4.723e+12  15.8       291.7      1.148e+06  12.70      23.199     32.115     33.032     32.051     30.741     29.181     27.466     25.510     22.448     13.282    
6465.6     4.786e+12  15.8       291.7      1.148e+06  12.70      22.627     29.740     29.927     29.324     28.608     27.850     27.062     26.168     24.360     15.302    
7291.2     4.813e+12  15.8       291.7      1.148e+06  12.70      22.801     29.234     29.003     28.339     27.691     27.088     26.545     26.046     24.933     16.303    
7928.6     4.726e+12  15.8       283.2      1.172e+06  12.70      19.551     24.946     25.349     25.593     25.952     26.355     26.785     27.235     27.038     18.329    
7930.6     5.132e+12  15.8       291.7      1.142e+06  12.70      12.815     19.272     22.741     25.547     27.785     29.336     30.103     29.463     26.824     16.524    
8073.6     5.130e+12  15.8       291.7      1.142e+06  12.70      16.884     23.512     25.516     26.524     27.039     27.445     26.942     26.094     23.849     15.013    
12969.6    5.318e+12  15.8       291.7      1.142e+06  12.70      19.658     25.244     25.776     25.231     24.703     24.182     23.658     22.973     21.342     14.114    
15621.6    5.378e+12  15.8       291.7      1.142e+06  12.70      19.440     23.462     23.165     22.835     22.755     22.866     23.145     23.544     23.375     16.458    
16407.8    5.234e+12  15.8       281.2      1.172e+06  12.70      15.958     19.182     19.369     19.799     20.542     21.492     22.636     23.987     25.143     18.374    
16409.8    5.728e+12  15.8       291.7      1.148e+06  12.70      8.165      11.366     13.506     15.949     18.580     21.221     23.701     25.825     27.261     21.836    
16552.8    5.733e+12  15.8       291.7      1.148e+06  12.70      12.101     15.602     16.872     18.099     19.332     20.534     21.679     22.713     23.333     18.770    
21808.8    5.855e+12  15.8       291.7      1.148e+06  12.70      16.978     20.100     20.000     19.786     19.578     19.399     19.263     19.168     18.842     15.309    
23690.4    5.872e+12  15.8       291.7      1.148e+06  12.70      16.793     19.151     18.887     18.726     18.714     18.799     18.994     19.361     19.970     16.663    
24426.2    5.702e+12  15.8       281.1      1.178e+06  12.70      13.647     15.515     15.623     16.034     16.666     17.428     18.326     19.455     20.731     18.288    
24428.2    6.387e+12  15.8       291.7      1.144e+06  12.70      6.952      10.504     12.808     14.918     16.878     18.565     19.803     20.423     19.173     12.735    
24571.2    6.362e+12  15.8       291.7      1.144e+06  12.70      9.969      13.862     15.375     16.334     17.051     17.587     17.916     17.881     16.789     11.297    
28027.2    6.315e+12  15.8       291.7      1.144e+06  12.70      12.787     15.720     16.026     15.853     15.788     15.768     15.801     15.844     15.432     11.272    
30187.2    6.287e+12  15.8       291.7      1.144e+06  12.70      13.294     15.655     15.530     15.366     15.253     15.181     15.157     15.188     14.949     11.334    
31490.4    6.261e+12  15.8       291.7      1.144e+06  12.70      13.277     15.167     14.999     14.910     14.952     15.069     15.261     15.596     16.284     12.646    
31911.8    6.160e+12  15.8       286.4      1.160e+06  12.70      11.278     12.918     13.009     13.294     13.749     14.290     14.910     15.679     16.475     13.408    
31913.8    6.591e+12  15.8       291.7      1.146e+06  12.70      1.250      1.826      2.240      2.620      2.973      3.280      3.507      3.624      3.449      2.738     
32056.8    6.475e+12  15.8       291.7      1.146e+06  12.70      1.879      2.528      2.828      3.028      3.181      3.302      3.381      3.390      3.242      2.625     
35512.8    6.250e+12  15.8       291.7      1.146e+06  12.70      2.709      3.287      3.381      3.406      3.426      3.453      3.489      3.525      3.497      3.013     
37312.8    6.156e+12  15.8       291.7      1.146e+06  12.70      2.995      3.512      3.558      3.559      3.563      3.575      3.598      3.632      3.658      3.207     
39067.2    6.054e+12  15.8       291.7      1.146e+06  12.70      3.211      3.634      3.638      3.662      3.723      3.811      3.925      4.082      4.275      3.951     
40010.4    5.890e+12  15.8       281.2      1.175e+06  12.70      2.420      2.724      2.783      2.906      3.083      3.299      3.554      3.872      4.258      4.135     
