# ===============================================================================================================================================================================
# TIME     FASTF      PCOOL      TCOOL      GKL        PITCH      Q1         Q2         Q3         Q4         Q5         Q6         Q7         Q8         Q9         Q10       
# (h)      (n/cmWs)   (MPa)      (Celsius)  (kg/s)     (mm)       (kW/m)     (kW/m)     (kW/m)     (kW/m)     (kW/m)     (kW/m)     (kW/m)     (kW/m)     (kW/m)     (kW/m)    
# ===============================================================================================================================================================================
0          4.408e+12  15.8       291.7      1.148e+06  12.70      10.876     17.157     18.962     19.817     20.273     20.325     19.946     19.012     16.610     8.938     
144        4.419e+12  15.8       291.7      1.148e+06  12.70      13.443     19.799     20.734     20.487     20.134     19.633     18.985     18.074     16.014     8.935     
1440       4.448e+12  15.8       291.7      1.148e+06  12.70      14.410     20.112     20.382     20.023     19.652     19.279     18.875     18.323     16.731     9.758     
3045.6     4.455e+12  15.8       291.7      1.148e+06  12.70      15.130     19.960     19.730     19.277     18.957     18.748     18.671     18.759     18.449     11.848    
4900.8     4.262e+12  15.8       273.3      1.198e+06  12.70      9.566      12.367     12.670     13.117     13.777     14.571     15.516     16.709     17.924     12.540    
4904.6     4.272e+12  15.8       283.4      1.171e+06  12.70      4.466      6.003      6.472      7.087      7.882      8.816      9.898      11.166     12.399     8.804     
4906.6     4.746e+12  15.8       291.7      1.148e+06  12.70      17.461     25.621     27.476     27.849     27.240     26.147     24.629     22.677     19.609     11.265    
5049.6     4.755e+12  15.8       291.7      1.148e+06  12.70      20.174     27.927     28.725     27.871     26.733     25.376     23.885     22.184     19.521     11.550    
6465.6     4.785e+12  15.8       291.7      1.148e+06  12.70      20.004     26.293     26.458     25.926     25.292     24.622     23.925     23.135     21.536     13.528    
7291.2     4.797e+12  15.8       291.7      1.148e+06  12.70      20.318     26.051     25.846     25.253     24.676     24.139     23.655     23.210     22.218     14.528    
7928.6     4.700e+12  15.8       283.2      1.172e+06  12.70      17.339     22.124     22.481     22.698     23.016     23.373     23.754     24.153     23.979     16.255    
7930.6     5.662e+12  15.8       291.7      1.142e+06  12.70      11.388     17.127     20.210     22.703     24.692     26.070     26.752     26.183     23.838     14.685    
8073.6     5.659e+12  15.8       291.7      1.142e+06  12.70      14.967     20.842     22.619     23.513     23.969     24.329     23.883     23.132     21.142     13.309    
12969.6    5.712e+12  15.8       291.7      1.142e+06  12.70      18.272     23.465     23.959     23.452     22.962     22.478     21.991     21.353     19.838     13.120    
15621.6    5.725e+12  15.8       291.7      1.142e+06  12.70      18.293     22.078     21.798     21.488     21.413     21.517     21.780     22.155     21.996     15.487    
16407.8    5.568e+12  15.8       281.2      1.172e+06  12.70      15.085     18.133     18.310     18.716     19.419     20.317     21.398     22.675     23.768     17.369    
16409.8    5.718e+12  15.8       291.7      1.148e+06  12.70      8.364      11.643     13.836     16.338     19.033     21.739     24.279     26.455     27.926     22.368    
16552.8    5.717e+12  15.8       291.7      1.148e+06  12.70      12.417     16.010     17.313     18.572     19.837     21.071     22.245     23.306     23.942     19.261    
21808.8    5.843e+12  15.8       291.7      1.148e+06  12.70      17.711     20.968     20.863     20.640     20.424     20.236     20.095     19.996     19.655     15.970    
23690.4    5.862e+12  15.8       291.7      1.148e+06  12.70      17.539     20.001     19.725     19.557     19.545     19.634     19.838     20.220     20.856     17.403    
24426.2    5.698e+12  15.8       281.1      1.178e+06  12.70      14.232     16.180     16.293     16.722     17.382     18.176     19.113     20.290     21.621     19.073    
24428.2    6.409e+12  15.8       291.7      1.144e+06  12.70      7.479      11.301     13.779     16.050     18.158     19.973     21.305     21.971     20.627     13.701    
24571.2    6.385e+12  15.8       291.7      1.144e+06  12.70      10.679     14.849     16.470     17.497     18.265     18.839     19.191     19.154     17.985     12.102    
28027.2    6.362e+12  15.8       291.7      1.144e+06  12.70      13.557     16.666     16.991     16.808     16.739     16.718     16.753     16.798     16.362     11.951    
30187.2    6.354e+12  15.8       291.7      1.144e+06  12.70      14.016     16.505     16.373     16.200     16.081     16.005     15.980     16.012     15.761     11.949    
31490.4    6.342e+12  15.8       291.7      1.144e+06  12.70      13.934     15.917     15.741     15.647     15.692     15.814     16.016     16.368     17.089     13.271    
31911.8    6.244e+12  15.8       286.4      1.160e+06  12.70      11.846     13.569     13.665     13.964     14.441     15.009     15.661     16.469     17.305     14.083    
31913.8    6.547e+12  15.8       291.7      1.146e+06  12.70      1.203      1.757      2.155      2.520      2.860      3.156      3.374      3.486      3.318      2.634     
32056.8    6.440e+12  15.8       291.7      1.146e+06  12.70      1.819      2.446      2.737      2.930      3.079      3.196      3.273      3.281      3.138      2.541     
35512.8    6.236e+12  15.8       291.7      1.146e+06  12.70      2.636      3.199      3.291      3.315      3.334      3.360      3.395      3.430      3.403      2.932     
37312.8    6.139e+12  15.8       291.7      1.146e+06  12.70      2.919      3.423      3.467      3.469      3.472      3.484      3.507      3.540      3.565      3.125     
39067.2    6.011e+12  15.8       291.7      1.146e+06  12.70      3.148      3.564      3.568      3.591      3.651      3.737      3.849      4.003      4.193      3.874     
40010.4    5.855e+12  15.8       281.2      1.175e+06  12.70      2.371      2.669      2.726      2.847      3.021      3.232      3.482      3.793      4.172      4.051     
