# ===============================================================================================================================================================================
# TIME     FASTF      PCOOL      TCOOL      GKL        PITCH      Q1         Q2         Q3         Q4         Q5         Q6         Q7         Q8         Q9         Q10       
# (h)      (n/cmWs)   (MPa)      (Celsius)  (kg/s)     (mm)       (kW/m)     (kW/m)     (kW/m)     (kW/m)     (kW/m)     (kW/m)     (kW/m)     (kW/m)     (kW/m)     (kW/m)    
# ===============================================================================================================================================================================
0          4.402e+12  15.8       291.7      1.148e+06  12.70      10.155     16.019     17.704     18.503     18.928     18.977     18.623     17.751     15.508     8.346     
144        4.417e+12  15.8       291.7      1.148e+06  12.70      12.580     18.527     19.402     19.171     18.840     18.372     17.766     16.913     14.985     8.361     
1440       4.439e+12  15.8       291.7      1.148e+06  12.70      13.539     18.896     19.150     18.813     18.464     18.114     17.734     17.216     15.720     9.168     
3045.6     4.440e+12  15.8       291.7      1.148e+06  12.70      14.284     18.843     18.627     18.199     17.897     17.700     17.626     17.710     17.417     11.185    
4900.8     4.247e+12  15.8       273.3      1.198e+06  12.70      9.077      11.735     12.022     12.446     13.073     13.826     14.722     15.855     17.007     11.898    
4904.6     4.254e+12  15.8       283.4      1.171e+06  12.70      4.231      5.687      6.132      6.714      7.467      8.353      9.378      10.578     11.747     8.340     
4906.6     4.765e+12  15.8       291.7      1.148e+06  12.70      16.253     23.849     25.576     25.923     25.356     24.338     22.925     21.109     18.253     10.485    
5049.6     4.771e+12  15.8       291.7      1.148e+06  12.70      18.702     25.889     26.628     25.837     24.782     23.524     22.141     20.565     18.096     10.707    
6465.6     4.798e+12  15.8       291.7      1.148e+06  12.70      18.551     24.383     24.536     24.042     23.454     22.832     22.186     21.453     19.971     12.545    
7291.2     4.805e+12  15.8       291.7      1.148e+06  12.70      18.877     24.204     24.012     23.462     22.926     22.427     21.977     21.564     20.642     13.497    
7928.6     4.708e+12  15.8       283.2      1.172e+06  12.70      16.195     20.664     20.998     21.200     21.497     21.831     22.187     22.559     22.397     15.183    
7930.6     5.620e+12  15.8       291.7      1.142e+06  12.70      11.645     17.513     20.666     23.216     25.250     26.659     27.356     26.774     24.376     15.017    
8073.6     5.615e+12  15.8       291.7      1.142e+06  12.70      15.261     21.251     23.063     23.975     24.440     24.807     24.352     23.586     21.557     13.570    
12969.6    5.704e+12  15.8       291.7      1.142e+06  12.70      18.529     23.795     24.296     23.782     23.285     22.794     22.300     21.654     20.117     13.304    
15621.6    5.725e+12  15.8       291.7      1.142e+06  12.70      18.463     22.282     22.000     21.687     21.611     21.717     21.982     22.360     22.200     15.630    
16407.8    5.567e+12  15.8       281.2      1.172e+06  12.70      15.227     18.303     18.482     18.892     19.602     20.508     21.599     22.888     23.991     17.533    
16409.8    5.736e+12  15.8       291.7      1.148e+06  12.70      8.452      11.766     13.982     16.511     19.234     21.968     24.536     26.735     28.221     22.605    
16552.8    5.736e+12  15.8       291.7      1.148e+06  12.70      12.477     16.088     17.397     18.662     19.934     21.173     22.353     23.420     24.059     19.354    
21808.8    5.881e+12  15.8       291.7      1.148e+06  12.70      17.473     20.686     20.583     20.362     20.149     19.964     19.824     19.727     19.391     15.755    
23690.4    5.914e+12  15.8       291.7      1.148e+06  12.70      17.260     19.682     19.411     19.246     19.233     19.321     19.522     19.898     20.524     17.126    
24426.2    5.753e+12  15.8       281.1      1.178e+06  12.70      14.068     15.994     16.105     16.529     17.181     17.967     18.893     20.056     21.372     18.854    
24428.2    6.475e+12  15.8       291.7      1.144e+06  12.70      7.594      11.475     13.991     16.297     18.437     20.281     21.633     22.310     20.945     13.912    
24571.2    6.451e+12  15.8       291.7      1.144e+06  12.70      10.882     15.132     16.784     17.830     18.613     19.198     19.557     19.519     18.327     12.332    
28027.2    6.433e+12  15.8       291.7      1.144e+06  12.70      13.741     16.893     17.222     17.036     16.966     16.945     16.980     17.026     16.584     12.113    
30187.2    6.422e+12  15.8       291.7      1.144e+06  12.70      14.150     16.664     16.531     16.356     16.235     16.159     16.134     16.166     15.912     12.064    
31490.4    6.408e+12  15.8       291.7      1.144e+06  12.70      14.044     16.043     15.865     15.771     15.816     15.939     16.143     16.497     17.224     13.376    
31911.8    6.309e+12  15.8       286.4      1.160e+06  12.70      11.917     13.649     13.746     14.047     14.527     15.098     15.754     16.567     17.407     14.167    
31913.8    6.632e+12  15.8       291.7      1.146e+06  12.70      2.216      3.237      3.970      4.644      5.270      5.814      6.216      6.424      6.113      4.853     
32056.8    6.536e+12  15.8       291.7      1.146e+06  12.70      3.280      4.411      4.936      5.284      5.553      5.762      5.902      5.917      5.658      4.581     
35512.8    6.341e+12  15.8       291.7      1.146e+06  12.70      4.549      5.520      5.679      5.721      5.754      5.799      5.860      5.920      5.873      5.060     
37312.8    6.247e+12  15.8       291.7      1.146e+06  12.70      4.934      5.786      5.860      5.863      5.869      5.889      5.928      5.984      6.026      5.282     
39067.2    6.157e+12  15.8       291.7      1.146e+06  12.70      5.193      5.878      5.885      5.923      6.021      6.163      6.349      6.603      6.915      6.390     
40010.4    5.998e+12  15.8       281.2      1.175e+06  12.70      3.927      4.420      4.515      4.715      5.003      5.353      5.767      6.282      6.909      6.710     
