# ===============================================================================================================================================================================
# TIME     FASTF      PCOOL      TCOOL      GKL        PITCH      Q1         Q2         Q3         Q4         Q5         Q6         Q7         Q8         Q9         Q10       
# (h)      (n/cmWs)   (MPa)      (Celsius)  (kg/s)     (mm)       (kW/m)     (kW/m)     (kW/m)     (kW/m)     (kW/m)     (kW/m)     (kW/m)     (kW/m)     (kW/m)     (kW/m)    
# ===============================================================================================================================================================================
0          4.333e+12  15.8       291.7      1.148e+06  12.70      12.492     19.707     21.780     22.762     23.286     23.346     22.910     21.838     19.079     10.267    
144        4.336e+12  15.8       291.7      1.148e+06  12.70      15.384     22.656     23.727     23.445     23.040     22.467     21.726     20.683     18.326     10.225    
1440       4.343e+12  15.8       291.7      1.148e+06  12.70      16.548     23.096     23.407     22.994     22.568     22.140     21.676     21.042     19.214     11.205    
3045.6     4.345e+12  15.8       291.7      1.148e+06  12.70      17.369     22.913     22.650     22.130     21.762     21.522     21.433     21.535     21.179     13.601    
4900.8     4.152e+12  15.8       273.3      1.198e+06  12.70      11.073     14.315     14.666     15.183     15.947     16.866     17.960     19.341     20.747     14.515    
4904.6     4.163e+12  15.8       283.4      1.171e+06  12.70      5.169      6.948      7.491      8.202      9.122      10.204     11.456     12.923     14.351     10.189    
4906.6     5.725e+12  15.8       291.7      1.148e+06  12.70      15.987     23.458     25.156     25.498     24.940     23.939     22.549     20.763     17.954     10.313    
5049.6     5.745e+12  15.8       291.7      1.148e+06  12.70      18.149     25.124     25.841     25.073     24.049     22.829     21.487     19.957     17.561     10.391    
6465.6     5.711e+12  15.8       291.7      1.148e+06  12.70      18.060     23.738     23.888     23.406     22.835     22.229     21.600     20.887     19.444     12.214    
7291.2     5.682e+12  15.8       291.7      1.148e+06  12.70      18.420     23.618     23.431     22.894     22.371     21.884     21.445     21.042     20.143     13.171    
7928.6     5.537e+12  15.8       283.2      1.172e+06  12.70      15.967     20.374     20.703     20.902     21.195     21.525     21.875     22.243     22.082     14.970    
7930.6     4.970e+12  15.8       291.7      1.142e+06  12.70      12.639     19.008     22.430     25.198     27.404     28.935     29.691     29.059     26.457     16.298    
8073.6     4.956e+12  15.8       291.7      1.142e+06  12.70      16.701     23.257     25.240     26.238     26.746     27.148     26.650     25.812     23.591     14.851    
12969.6    5.094e+12  15.8       291.7      1.142e+06  12.70      19.768     25.386     25.921     25.372     24.842     24.318     23.791     23.102     21.462     14.194    
15621.6    5.154e+12  15.8       291.7      1.142e+06  12.70      19.564     23.612     23.313     22.981     22.901     23.012     23.293     23.694     23.524     16.563    
16407.8    5.032e+12  15.8       281.2      1.172e+06  12.70      16.010     19.245     19.432     19.864     20.610     21.563     22.710     24.065     25.225     18.434    
16409.8    5.795e+12  15.8       291.7      1.148e+06  12.70      8.434      11.741     13.952     16.476     19.193     21.922     24.483     26.678     28.161     22.557    
16552.8    5.798e+12  15.8       291.7      1.148e+06  12.70      12.454     16.058     17.365     18.628     19.897     21.134     22.312     23.377     24.014     19.319    
21808.8    5.933e+12  15.8       291.7      1.148e+06  12.70      17.321     20.505     20.403     20.185     19.973     19.790     19.652     19.555     19.222     15.617    
23690.4    5.945e+12  15.8       291.7      1.148e+06  12.70      17.125     19.528     19.259     19.095     19.083     19.170     19.369     19.743     20.364     16.992    
24426.2    5.773e+12  15.8       281.1      1.178e+06  12.70      13.964     15.876     15.986     16.407     17.054     17.834     18.753     19.908     21.214     18.714    
24428.2    6.491e+12  15.8       291.7      1.144e+06  12.70      7.427      11.222     13.684     15.939     18.032     19.835     21.158     21.819     20.485     13.606    
24571.2    6.470e+12  15.8       291.7      1.144e+06  12.70      10.629     14.780     16.393     17.416     18.180     18.751     19.102     19.065     17.901     12.045    
28027.2    6.428e+12  15.8       291.7      1.144e+06  12.70      13.525     16.628     16.951     16.768     16.700     16.679     16.713     16.759     16.324     11.923    
30187.2    6.394e+12  15.8       291.7      1.144e+06  12.70      14.012     16.501     16.369     16.196     16.077     16.001     15.976     16.008     15.757     11.946    
31490.4    6.359e+12  15.8       291.7      1.144e+06  12.70      13.955     15.941     15.764     15.671     15.716     15.838     16.040     16.392     17.115     13.291    
31911.8    6.256e+12  15.8       286.4      1.160e+06  12.70      11.863     13.587     13.683     13.983     14.461     15.030     15.683     16.491     17.328     14.102    
31913.8    6.454e+12  15.8       291.7      1.146e+06  12.70      1.752      2.559      3.139      3.672      4.167      4.597      4.915      5.079      4.834      3.838     
32056.8    6.354e+12  15.8       291.7      1.146e+06  12.70      2.604      3.502      3.918      4.195      4.408      4.575      4.685      4.698      4.492      3.637     
35512.8    6.163e+12  15.8       291.7      1.146e+06  12.70      3.667      4.450      4.578      4.612      4.638      4.674      4.724      4.772      4.734      4.079     
37312.8    6.063e+12  15.8       291.7      1.146e+06  12.70      4.013      4.705      4.766      4.768      4.773      4.789      4.820      4.866      4.900      4.296     
39067.2    5.984e+12  15.8       291.7      1.146e+06  12.70      4.245      4.806      4.811      4.842      4.923      5.039      5.190      5.398      5.653      5.224     
40010.4    5.808e+12  15.8       281.2      1.175e+06  12.70      3.204      3.607      3.684      3.847      4.082      4.368      4.706      5.126      5.638      5.475     
