# ===============================================================================================================================================================================
# TIME     FASTF      PCOOL      TCOOL      GKL        PITCH      Q1         Q2         Q3         Q4         Q5         Q6         Q7         Q8         Q9         Q10       
# (h)      (n/cmWs)   (MPa)      (Celsius)  (kg/s)     (mm)       (kW/m)     (kW/m)     (kW/m)     (kW/m)     (kW/m)     (kW/m)     (kW/m)     (kW/m)     (kW/m)     (kW/m)    
# ===============================================================================================================================================================================
0          4.100e+12  15.8       291.7      1.148e+06  12.70      15.157     23.911     26.426     27.618     28.253     28.326     27.797     26.496     23.149     12.457    
144        4.128e+12  15.8       291.7      1.148e+06  12.70      18.451     27.174     28.457     28.119     27.634     26.947     26.058     24.806     21.979     12.263    
1440       4.201e+12  15.8       291.7      1.148e+06  12.70      19.383     27.054     27.418     26.935     26.436     25.933     25.390     24.648     22.506     13.125    
3045.6     4.262e+12  15.8       291.7      1.148e+06  12.70      19.876     26.221     25.919     25.324     24.904     24.629     24.527     24.644     24.236     15.564    
4900.8     4.108e+12  15.8       273.3      1.198e+06  12.70      12.546     16.219     16.616     17.202     18.068     19.109     20.348     21.913     23.506     16.445    
4904.6     4.101e+12  15.8       283.4      1.171e+06  12.70      5.883      7.907      8.526      9.335      10.382     11.613     13.038     14.708     16.332     11.596    
4906.6     4.559e+12  15.8       291.7      1.148e+06  12.70      20.243     29.703     31.854     32.286     31.580     30.312     28.553     26.290     22.734     13.059    
5049.6     4.572e+12  15.8       291.7      1.148e+06  12.70      23.220     32.144     33.062     32.079     30.769     29.208     27.491     25.533     22.468     13.294    
6465.6     4.636e+12  15.8       291.7      1.148e+06  12.70      22.740     29.889     30.076     29.471     28.751     27.989     27.197     26.298     24.481     15.378    
7291.2     4.659e+12  15.8       291.7      1.148e+06  12.70      22.945     29.419     29.186     28.517     27.866     27.259     26.712     26.210     25.090     16.406    
7928.6     4.571e+12  15.8       283.2      1.172e+06  12.70      19.586     24.991     25.394     25.639     25.998     26.402     26.832     27.283     27.086     18.362    
7930.6     5.033e+12  15.8       291.7      1.142e+06  12.70      12.844     19.316     22.793     25.606     27.848     29.403     30.172     29.530     26.885     16.562    
8073.6     5.028e+12  15.8       291.7      1.142e+06  12.70      16.929     23.574     25.584     26.595     27.111     27.518     27.014     26.164     23.913     15.053    
12969.6    5.216e+12  15.8       291.7      1.142e+06  12.70      19.778     25.399     25.934     25.385     24.855     24.330     23.803     23.113     21.473     14.201    
15621.6    5.288e+12  15.8       291.7      1.142e+06  12.70      19.554     23.599     23.301     22.969     22.889     23.000     23.281     23.682     23.512     16.554    
16407.8    5.151e+12  15.8       281.2      1.172e+06  12.70      16.049     19.291     19.480     19.912     20.660     21.615     22.766     24.124     25.287     18.479    
16409.8    5.615e+12  15.8       291.7      1.148e+06  12.70      8.360      11.638     13.830     16.331     19.025     21.730     24.269     26.444     27.914     22.359    
16552.8    5.618e+12  15.8       291.7      1.148e+06  12.70      12.417     16.010     17.312     18.571     19.837     21.070     22.244     23.306     23.942     19.260    
21808.8    5.748e+12  15.8       291.7      1.148e+06  12.70      17.719     20.977     20.873     20.649     20.433     20.245     20.103     20.005     19.664     15.977    
23690.4    5.778e+12  15.8       291.7      1.148e+06  12.70      17.527     19.987     19.712     19.544     19.531     19.621     19.824     20.207     20.842     17.391    
24426.2    5.613e+12  15.8       281.1      1.178e+06  12.70      14.206     16.150     16.263     16.691     17.349     18.142     19.077     20.252     21.581     19.038    
24428.2    6.277e+12  15.8       291.7      1.144e+06  12.70      6.985      10.555     12.869     14.990     16.959     18.655     19.899     20.521     19.266     12.797    
24571.2    6.253e+12  15.8       291.7      1.144e+06  12.70      9.997      13.902     15.419     16.381     17.100     17.637     17.967     17.932     16.837     11.330    
28027.2    6.211e+12  15.8       291.7      1.144e+06  12.70      12.835     15.780     16.087     15.913     15.848     15.829     15.861     15.904     15.491     11.315    
30187.2    6.188e+12  15.8       291.7      1.144e+06  12.70      13.359     15.732     15.606     15.441     15.328     15.255     15.232     15.262     15.022     11.389    
31490.4    6.159e+12  15.8       291.7      1.144e+06  12.70      13.352     15.252     15.083     14.993     15.036     15.153     15.347     15.684     16.375     12.717    
31911.8    6.068e+12  15.8       286.4      1.160e+06  12.70      11.354     13.005     13.097     13.383     13.841     14.385     15.010     15.784     16.585     13.498    
31913.8    6.484e+12  15.8       291.7      1.146e+06  12.70      0.904      1.320      1.619      1.894      2.149      2.371      2.535      2.619      2.493      1.979     
32056.8    6.367e+12  15.8       291.7      1.146e+06  12.70      1.375      1.849      2.069      2.215      2.327      2.415      2.474      2.480      2.372      1.920     
35512.8    6.138e+12  15.8       291.7      1.146e+06  12.70      2.022      2.453      2.524      2.542      2.557      2.577      2.604      2.631      2.610      2.249     
37312.8    6.027e+12  15.8       291.7      1.146e+06  12.70      2.255      2.644      2.678      2.679      2.682      2.691      2.709      2.735      2.754      2.414     
39067.2    5.917e+12  15.8       291.7      1.146e+06  12.70      2.449      2.772      2.775      2.793      2.840      2.907      2.994      3.114      3.261      3.014     
40010.4    5.774e+12  15.8       281.2      1.175e+06  12.70      1.842      2.074      2.118      2.212      2.347      2.511      2.705      2.947      3.241      3.147     
