# ===============================================================================================================================================================================
# TIME     FASTF      PCOOL      TCOOL      GKL        PITCH      Q1         Q2         Q3         Q4         Q5         Q6         Q7         Q8         Q9         Q10       
# (h)      (n/cmWs)   (MPa)      (Celsius)  (kg/s)     (mm)       (kW/m)     (kW/m)     (kW/m)     (kW/m)     (kW/m)     (kW/m)     (kW/m)     (kW/m)     (kW/m)     (kW/m)    
# ===============================================================================================================================================================================
0          4.417e+12  15.8       291.7      1.148e+06  12.70      14.862     23.445     25.911     27.079     27.702     27.773     27.255     25.980     22.697     12.214    
144        4.444e+12  15.8       291.7      1.148e+06  12.70      18.072     26.615     27.872     27.541     27.065     26.392     25.522     24.296     21.527     12.011    
1440       4.503e+12  15.8       291.7      1.148e+06  12.70      19.026     26.555     26.912     26.438     25.948     25.455     24.922     24.194     22.091     12.883    
3045.6     4.555e+12  15.8       291.7      1.148e+06  12.70      19.528     25.761     25.465     24.881     24.467     24.198     24.098     24.212     23.812     15.292    
4900.8     4.377e+12  15.8       273.3      1.198e+06  12.70      12.329     15.939     16.330     16.905     17.757     18.779     19.997     21.535     23.100     16.161    
4904.6     4.372e+12  15.8       283.4      1.171e+06  12.70      5.791      7.783      8.392      9.189      10.219     11.431     12.834     14.477     16.076     11.414    
4906.6     4.876e+12  15.8       291.7      1.148e+06  12.70      19.146     28.093     30.127     30.536     29.868     28.669     27.005     24.865     21.501     12.351    
5049.6     4.889e+12  15.8       291.7      1.148e+06  12.70      21.984     30.433     31.302     30.372     29.131     27.653     26.028     24.174     21.272     12.587    
6465.6     4.931e+12  15.8       291.7      1.148e+06  12.70      21.643     28.447     28.626     28.050     27.364     26.639     25.885     25.030     23.301     14.636    
7291.2     4.942e+12  15.8       291.7      1.148e+06  12.70      21.882     28.057     27.835     27.197     26.576     25.997     25.476     24.997     23.929     15.646    
7928.6     4.841e+12  15.8       283.2      1.172e+06  12.70      18.673     23.827     24.212     24.445     24.787     25.172     25.583     26.012     25.824     17.507    
7930.6     5.323e+12  15.8       291.7      1.142e+06  12.70      11.801     17.748     20.943     23.527     25.587     27.016     27.722     27.132     24.702     15.217    
8073.6     5.316e+12  15.8       291.7      1.142e+06  12.70      15.623     21.756     23.611     24.544     25.020     25.396     24.930     24.146     22.069     13.892    
12969.6    5.424e+12  15.8       291.7      1.142e+06  12.70      18.534     23.800     24.302     23.788     23.291     22.799     22.305     21.659     20.121     13.307    
15621.6    5.454e+12  15.8       291.7      1.142e+06  12.70      18.521     22.353     22.070     21.756     21.680     21.786     22.051     22.431     22.270     15.680    
16407.8    5.305e+12  15.8       281.2      1.172e+06  12.70      15.202     18.274     18.452     18.862     19.570     20.475     21.565     22.851     23.953     17.504    
16409.8    5.828e+12  15.8       291.7      1.148e+06  12.70      8.266      11.507     13.674     16.147     18.810     21.484     23.995     26.145     27.599     22.106    
16552.8    5.832e+12  15.8       291.7      1.148e+06  12.70      12.282     15.835     17.124     18.369     19.621     20.841     22.002     23.052     23.681     19.051    
21808.8    5.990e+12  15.8       291.7      1.148e+06  12.70      17.672     20.921     20.817     20.594     20.378     20.191     20.050     19.952     19.612     15.934    
23690.4    6.013e+12  15.8       291.7      1.148e+06  12.70      17.491     19.946     19.671     19.504     19.491     19.581     19.784     20.165     20.800     17.356    
24426.2    5.842e+12  15.8       281.1      1.178e+06  12.70      14.171     16.111     16.223     16.650     17.306     18.097     19.030     20.202     21.528     18.991    
24428.2    6.468e+12  15.8       291.7      1.144e+06  12.70      6.844      10.341     12.609     14.687     16.616     18.278     19.496     20.106     18.876     12.538    
24571.2    6.445e+12  15.8       291.7      1.144e+06  12.70      9.760      13.571     15.053     15.991     16.693     17.218     17.540     17.506     16.437     11.060    
28027.2    6.440e+12  15.8       291.7      1.144e+06  12.70      12.487     15.351     15.650     15.481     15.418     15.399     15.430     15.472     15.071     11.008    
30187.2    6.431e+12  15.8       291.7      1.144e+06  12.70      12.968     15.272     15.150     14.989     14.879     14.809     14.786     14.816     14.583     11.056    
31490.4    6.413e+12  15.8       291.7      1.144e+06  12.70      12.949     14.792     14.628     14.541     14.583     14.696     14.884     15.211     15.881     12.333    
31911.8    6.314e+12  15.8       286.4      1.160e+06  12.70      11.028     12.632     12.721     13.000     13.444     13.973     14.580     15.332     16.110     13.110    
31913.8    6.679e+12  15.8       291.7      1.146e+06  12.70      0.507      0.741      0.909      1.063      1.206      1.331      1.423      1.471      1.400      1.111     
32056.8    6.491e+12  15.8       291.7      1.146e+06  12.70      0.783      1.053      1.178      1.262      1.326      1.376      1.409      1.413      1.351      1.094     
35512.8    6.181e+12  15.8       291.7      1.146e+06  12.70      1.184      1.436      1.478      1.489      1.497      1.509      1.525      1.540      1.528      1.317     
37312.8    6.068e+12  15.8       291.7      1.146e+06  12.70      1.341      1.573      1.593      1.594      1.595      1.601      1.611      1.626      1.638      1.436     
39067.2    5.916e+12  15.8       291.7      1.146e+06  12.70      1.484      1.680      1.682      1.693      1.721      1.761      1.815      1.887      1.976      1.826     
40010.4    5.800e+12  15.8       281.2      1.175e+06  12.70      1.108      1.247      1.274      1.330      1.412      1.510      1.627      1.772      1.950      1.893     
