# ===============================================================================================================================================================================
# TIME     FASTF      PCOOL      TCOOL      GKL        PITCH      Q1         Q2         Q3         Q4         Q5         Q6         Q7         Q8         Q9         Q10       
# (h)      (n/cmWs)   (MPa)      (Celsius)  (kg/s)     (mm)       (kW/m)     (kW/m)     (kW/m)     (kW/m)     (kW/m)     (kW/m)     (kW/m)     (kW/m)     (kW/m)     (kW/m)    
# ===============================================================================================================================================================================
0          4.348e+12  15.8       291.7      1.148e+06  12.70      13.985     22.062     24.383     25.483     26.069     26.136     25.648     24.448     21.359     11.494    
144        4.375e+12  15.8       291.7      1.148e+06  12.70      17.042     25.098     26.283     25.971     25.522     24.888     24.067     22.911     20.300     11.326    
1440       4.444e+12  15.8       291.7      1.148e+06  12.70      17.974     25.086     25.424     24.976     24.513     24.047     23.544     22.855     20.870     12.171    
3045.6     4.497e+12  15.8       291.7      1.148e+06  12.70      18.515     24.426     24.145     23.591     23.199     22.943     22.848     22.956     22.577     14.499    
4900.8     4.325e+12  15.8       273.3      1.198e+06  12.70      11.755     15.197     15.569     16.118     16.930     17.905     19.066     20.532     22.025     15.409    
4904.6     4.322e+12  15.8       283.4      1.171e+06  12.70      5.506      7.401      7.980      8.737      9.717      10.870     12.203     13.766     15.286     10.854    
4906.6     4.808e+12  15.8       291.7      1.148e+06  12.70      19.303     28.324     30.375     30.787     30.114     28.905     27.227     25.070     21.678     12.453    
5049.6     4.823e+12  15.8       291.7      1.148e+06  12.70      22.052     30.527     31.399     30.466     29.221     27.739     26.108     24.249     21.338     12.626    
6465.6     4.875e+12  15.8       291.7      1.148e+06  12.70      21.604     28.395     28.574     27.998     27.314     26.590     25.838     24.984     23.258     14.610    
7291.2     4.898e+12  15.8       291.7      1.148e+06  12.70      21.823     27.981     27.760     27.124     26.504     25.927     25.407     24.929     23.864     15.604    
7928.6     4.802e+12  15.8       283.2      1.172e+06  12.70      18.711     23.875     24.261     24.494     24.838     25.224     25.635     26.065     25.877     17.542    
7930.6     5.270e+12  15.8       291.7      1.142e+06  12.70      12.551     18.876     22.274     25.022     27.214     28.733     29.484     28.857     26.272     16.185    
8073.6     5.267e+12  15.8       291.7      1.142e+06  12.70      16.514     22.996     24.956     25.943     26.446     26.843     26.351     25.522     23.326     14.684    
12969.6    5.440e+12  15.8       291.7      1.142e+06  12.70      19.379     24.886     25.410     24.872     24.353     23.839     23.322     22.647     21.039     13.914    
15621.6    5.497e+12  15.8       291.7      1.142e+06  12.70      19.165     23.130     22.838     22.513     22.434     22.543     22.818     23.211     23.045     16.225    
16407.8    5.354e+12  15.8       281.2      1.172e+06  12.70      15.746     18.927     19.112     19.536     20.270     21.207     22.336     23.668     24.809     18.130    
16409.8    5.835e+12  15.8       291.7      1.148e+06  12.70      8.037      11.188     13.296     15.700     18.290     20.890     23.331     25.422     26.836     21.495    
16552.8    5.835e+12  15.8       291.7      1.148e+06  12.70      11.912     15.359     16.609     17.816     19.030     20.214     21.340     22.358     22.968     18.477    
21808.8    5.939e+12  15.8       291.7      1.148e+06  12.70      16.845     19.942     19.843     19.631     19.425     19.247     19.112     19.018     18.694     15.189    
23690.4    5.946e+12  15.8       291.7      1.148e+06  12.70      16.693     19.035     18.773     18.613     18.601     18.686     18.880     19.245     19.850     16.563    
24426.2    5.775e+12  15.8       281.1      1.178e+06  12.70      13.572     15.430     15.537     15.946     16.575     17.333     18.226     19.349     20.618     18.189    
24428.2    6.463e+12  15.8       291.7      1.144e+06  12.70      6.855      10.359     12.630     14.712     16.644     18.309     19.529     20.140     18.908     12.559    
24571.2    6.439e+12  15.8       291.7      1.144e+06  12.70      9.840      13.683     15.177     16.123     16.831     17.360     17.684     17.650     16.572     11.152    
28027.2    6.380e+12  15.8       291.7      1.144e+06  12.70      12.631     15.529     15.832     15.660     15.596     15.577     15.609     15.651     15.245     11.135    
30187.2    6.351e+12  15.8       291.7      1.144e+06  12.70      13.132     15.464     15.341     15.179     15.067     14.996     14.973     15.003     14.767     11.196    
31490.4    6.324e+12  15.8       291.7      1.144e+06  12.70      13.116     14.983     14.817     14.729     14.771     14.886     15.076     15.407     16.086     12.492    
31911.8    6.231e+12  15.8       286.4      1.160e+06  12.70      11.136     12.755     12.845     13.127     13.575     14.109     14.722     15.482     16.267     13.239    
31913.8    6.678e+12  15.8       291.7      1.146e+06  12.70      1.378      2.013      2.469      2.888      3.277      3.615      3.865      3.994      3.801      3.018     
32056.8    6.565e+12  15.8       291.7      1.146e+06  12.70      2.068      2.782      3.113      3.333      3.502      3.634      3.722      3.732      3.569      2.890     
35512.8    6.345e+12  15.8       291.7      1.146e+06  12.70      2.967      3.600      3.703      3.731      3.752      3.781      3.821      3.860      3.830      3.300     
37312.8    6.248e+12  15.8       291.7      1.146e+06  12.70      3.270      3.834      3.884      3.885      3.889      3.903      3.928      3.965      3.993      3.501     
39067.2    6.140e+12  15.8       291.7      1.146e+06  12.70      3.498      3.960      3.965      3.990      4.057      4.152      4.277      4.448      4.659      4.305     
40010.4    5.986e+12  15.8       281.2      1.175e+06  12.70      2.640      2.972      3.036      3.170      3.364      3.599      3.877      4.223      4.645      4.511     
