# ===============================================================================================================================================================================
# TIME     FASTF      PCOOL      TCOOL      GKL        PITCH      Q1         Q2         Q3         Q4         Q5         Q6         Q7         Q8         Q9         Q10       
# (h)      (n/cmWs)   (MPa)      (Celsius)  (kg/s)     (mm)       (kW/m)     (kW/m)     (kW/m)     (kW/m)     (kW/m)     (kW/m)     (kW/m)     (kW/m)     (kW/m)     (kW/m)    
# ===============================================================================================================================================================================
0          5.006e+12  15.8       291.7      1.148e+06  12.70      14.524     22.913     25.323     26.465     27.074     27.143     26.637     25.390     22.182     11.937    
144        5.034e+12  15.8       291.7      1.148e+06  12.70      17.497     25.768     26.985     26.665     26.204     25.553     24.710     23.523     20.842     11.629    
1440       5.010e+12  15.8       291.7      1.148e+06  12.70      18.701     26.101     26.452     25.986     25.504     25.020     24.496     23.780     21.714     12.663    
3045.6     4.999e+12  15.8       291.7      1.148e+06  12.70      19.369     25.552     25.258     24.678     24.268     24.001     23.901     24.015     23.618     15.167    
4900.8     4.738e+12  15.8       273.3      1.198e+06  12.70      12.532     16.202     16.599     17.184     18.049     19.088     20.326     21.890     23.481     16.427    
4904.6     4.740e+12  15.8       283.4      1.171e+06  12.70      5.901      7.931      8.551      9.363      10.413     11.648     13.077     14.751     16.381     11.631    
4906.6     4.588e+12  15.8       291.7      1.148e+06  12.70      20.363     29.879     32.043     32.477     31.767     30.492     28.722     26.446     22.868     13.137    
5049.6     4.595e+12  15.8       291.7      1.148e+06  12.70      23.297     32.250     33.171     32.185     30.870     29.304     27.582     25.617     22.542     13.338    
6465.6     4.624e+12  15.8       291.7      1.148e+06  12.70      22.908     30.110     30.299     29.689     28.964     28.196     27.398     26.493     24.663     15.492    
7291.2     4.636e+12  15.8       291.7      1.148e+06  12.70      23.156     29.689     29.455     28.780     28.122     27.510     26.958     26.451     25.321     16.557    
7928.6     4.542e+12  15.8       283.2      1.172e+06  12.70      19.780     25.239     25.647     25.894     26.257     26.665     27.099     27.554     27.355     18.544    
7930.6     5.007e+12  15.8       291.7      1.142e+06  12.70      13.704     20.609     24.319     27.320     29.713     31.372     32.191     31.507     28.685     17.671    
8073.6     5.019e+12  15.8       291.7      1.142e+06  12.70      18.012     25.083     27.221     28.297     28.846     29.279     28.742     27.838     25.443     16.016    
12969.6    5.361e+12  15.8       291.7      1.142e+06  12.70      20.446     26.256     26.809     26.242     25.693     25.151     24.606     23.893     22.197     14.680    
15621.6    5.449e+12  15.8       291.7      1.142e+06  12.70      20.162     24.333     24.025     23.683     23.600     23.715     24.005     24.418     24.243     17.069    
16407.8    5.309e+12  15.8       281.2      1.172e+06  12.70      16.554     19.899     20.093     20.539     21.310     22.296     23.482     24.883     26.083     19.061    
16409.8    5.791e+12  15.8       291.7      1.148e+06  12.70      7.984      11.115     13.208     15.597     18.169     20.752     23.177     25.254     26.659     21.353    
16552.8    5.798e+12  15.8       291.7      1.148e+06  12.70      11.897     15.340     16.588     17.794     19.007     20.189     21.314     22.331     22.940     18.455    
21808.8    5.896e+12  15.8       291.7      1.148e+06  12.70      16.907     20.015     19.916     19.703     19.496     19.317     19.182     19.088     18.763     15.244    
23690.4    5.900e+12  15.8       291.7      1.148e+06  12.70      16.778     19.133     18.869     18.708     18.696     18.782     18.977     19.343     19.951     16.648    
24426.2    5.725e+12  15.8       281.1      1.178e+06  12.70      13.592     15.452     15.560     15.969     16.599     17.358     18.252     19.376     20.648     18.215    
24428.2    6.294e+12  15.8       291.7      1.144e+06  12.70      7.376      11.145     13.589     15.829     17.908     19.699     21.012     21.669     20.344     13.512    
24571.2    6.293e+12  15.8       291.7      1.144e+06  12.70      10.462     14.547     16.135     17.141     17.894     18.456     18.801     18.765     17.619     11.856    
28027.2    6.425e+12  15.8       291.7      1.144e+06  12.70      13.076     16.076     16.389     16.212     16.146     16.126     16.159     16.203     15.782     11.527    
30187.2    6.442e+12  15.8       291.7      1.144e+06  12.70      13.511     15.911     15.784     15.617     15.502     15.429     15.405     15.435     15.193     11.519    
31490.4    6.418e+12  15.8       291.7      1.144e+06  12.70      13.475     15.392     15.222     15.131     15.175     15.292     15.488     15.828     16.526     12.834    
31911.8    6.318e+12  15.8       286.4      1.160e+06  12.70      11.486     13.156     13.249     13.539     14.002     14.553     15.185     15.968     16.779     13.655    
31913.8    6.462e+12  15.8       291.7      1.146e+06  12.70      0.446      0.652      0.800      0.935      1.061      1.171      1.252      1.294      1.231      0.978     
32056.8    6.085e+12  15.8       291.7      1.146e+06  12.70      0.709      0.953      1.067      1.142      1.200      1.246      1.276      1.279      1.223      0.990     
35512.8    5.487e+12  15.8       291.7      1.146e+06  12.70      1.138      1.381      1.421      1.431      1.439      1.451      1.466      1.481      1.469      1.266     
37312.8    5.151e+12  15.8       291.7      1.146e+06  12.70      1.345      1.577      1.597      1.598      1.600      1.605      1.616      1.631      1.642      1.440     
39067.2    4.739e+12  15.8       291.7      1.146e+06  12.70      1.565      1.772      1.774      1.785      1.815      1.858      1.914      1.990      2.084      1.926     
40010.4    4.656e+12  15.8       281.2      1.175e+06  12.70      1.158      1.303      1.331      1.390      1.475      1.578      1.700      1.852      2.037      1.978     
