# ===============================================================================================================================================================================
# TIME     FASTF      PCOOL      TCOOL      GKL        PITCH      Q1         Q2         Q3         Q4         Q5         Q6         Q7         Q8         Q9         Q10       
# (h)      (n/cmWs)   (MPa)      (Celsius)  (kg/s)     (mm)       (kW/m)     (kW/m)     (kW/m)     (kW/m)     (kW/m)     (kW/m)     (kW/m)     (kW/m)     (kW/m)     (kW/m)    
# ===============================================================================================================================================================================
0          4.119e+12  15.8       291.7      1.148e+06  12.70      17.020     26.850     29.674     31.012     31.725     31.807     31.214     29.752     25.993     13.988    
144        4.150e+12  15.8       291.7      1.148e+06  12.70      20.573     30.299     31.730     31.353     30.812     30.046     29.055     27.660     24.507     13.674    
1440       4.228e+12  15.8       291.7      1.148e+06  12.70      21.525     30.042     30.446     29.910     29.356     28.798     28.195     27.371     24.993     14.575    
3045.6     4.303e+12  15.8       291.7      1.148e+06  12.70      21.913     28.908     28.576     27.920     27.456     27.153     27.041     27.169     26.721     17.160    
4900.8     4.162e+12  15.8       273.3      1.198e+06  12.70      13.867     17.928     18.367     19.014     19.972     21.122     22.492     24.222     25.982     18.177    
4904.6     4.160e+12  15.8       283.4      1.171e+06  12.70      6.516      8.758      9.443      10.340     11.499     12.863     14.442     16.291     18.090     12.844    
4906.6     4.613e+12  15.8       291.7      1.148e+06  12.70      21.181     31.079     33.329     33.782     33.043     31.717     29.875     27.508     23.787     13.664    
5049.6     4.630e+12  15.8       291.7      1.148e+06  12.70      24.131     33.405     34.359     33.338     31.976     30.353     28.569     26.535     23.349     13.816    
6465.6     4.701e+12  15.8       291.7      1.148e+06  12.70      23.482     30.865     31.059     30.433     29.690     28.903     28.085     27.157     25.281     15.880    
7291.2     4.732e+12  15.8       291.7      1.148e+06  12.70      23.626     30.292     30.053     29.364     28.693     28.068     27.505     26.988     25.835     16.893    
7928.6     4.647e+12  15.8       283.2      1.172e+06  12.70      20.207     25.783     26.199     26.452     26.822     27.239     27.683     28.148     27.945     18.944    
7930.6     5.088e+12  15.8       291.7      1.142e+06  12.70      13.158     19.788     23.350     26.231     28.528     30.121     30.908     30.251     27.541     16.966    
8073.6     5.088e+12  15.8       291.7      1.142e+06  12.70      17.345     24.154     26.213     27.250     27.778     28.195     27.678     26.807     24.501     15.423    
12969.6    5.284e+12  15.8       291.7      1.142e+06  12.70      20.116     25.833     26.377     25.819     25.279     24.746     24.210     23.508     21.840     14.443    
15621.6    5.344e+12  15.8       291.7      1.142e+06  12.70      19.898     24.014     23.710     23.373     23.291     23.405     23.690     24.098     23.925     16.845    
16407.8    5.203e+12  15.8       281.2      1.172e+06  12.70      16.336     19.636     19.828     20.268     21.029     22.002     23.173     24.555     25.739     18.810    
16409.8    5.678e+12  15.8       291.7      1.148e+06  12.70      8.112      11.293     13.420     15.847     18.460     21.085     23.549     25.659     27.086     21.695    
16552.8    5.684e+12  15.8       291.7      1.148e+06  12.70      12.056     15.545     16.810     18.032     19.261     20.458     21.598     22.629     23.246     18.701    
21808.8    5.797e+12  15.8       291.7      1.148e+06  12.70      17.007     20.134     20.034     19.819     19.612     19.432     19.296     19.201     18.874     15.335    
23690.4    5.816e+12  15.8       291.7      1.148e+06  12.70      16.831     19.193     18.928     18.767     18.755     18.841     19.036     19.404     20.014     16.700    
24426.2    5.649e+12  15.8       281.1      1.178e+06  12.70      13.647     15.515     15.623     16.035     16.667     17.429     18.327     19.456     20.733     18.290    
24428.2    6.322e+12  15.8       291.7      1.144e+06  12.70      6.893      10.415     12.699     14.792     16.735     18.408     19.635     20.249     19.011     12.627    
24571.2    6.295e+12  15.8       291.7      1.144e+06  12.70      9.869      13.723     15.221     16.170     16.880     17.410     17.735     17.701     16.620     11.184    
28027.2    6.245e+12  15.8       291.7      1.144e+06  12.70      12.712     15.628     15.932     15.760     15.695     15.676     15.708     15.751     15.342     11.206    
30187.2    6.220e+12  15.8       291.7      1.144e+06  12.70      13.246     15.599     15.474     15.310     15.198     15.126     15.103     15.133     14.895     11.293    
31490.4    6.192e+12  15.8       291.7      1.144e+06  12.70      13.251     15.136     14.968     14.880     14.922     15.038     15.230     15.565     16.251     12.620    
31911.8    6.092e+12  15.8       286.4      1.160e+06  12.70      11.269     12.908     12.999     13.284     13.738     14.278     14.899     15.667     16.462     13.397    
31913.8    6.483e+12  15.8       291.7      1.146e+06  12.70      0.847      1.238      1.518      1.775      2.015      2.223      2.377      2.456      2.337      1.856     
32056.8    6.403e+12  15.8       291.7      1.146e+06  12.70      1.287      1.731      1.937      2.073      2.179      2.261      2.316      2.322      2.220      1.798     
35512.8    6.158e+12  15.8       291.7      1.146e+06  12.70      1.896      2.300      2.367      2.384      2.398      2.416      2.442      2.467      2.447      2.109     
37312.8    6.043e+12  15.8       291.7      1.146e+06  12.70      2.121      2.486      2.518      2.519      2.522      2.531      2.547      2.571      2.589      2.270     
39067.2    5.924e+12  15.8       291.7      1.146e+06  12.70      2.303      2.607      2.609      2.626      2.670      2.733      2.815      2.928      3.066      2.833     
40010.4    5.762e+12  15.8       281.2      1.175e+06  12.70      1.730      1.947      1.989      2.077      2.204      2.358      2.541      2.767      3.044      2.956     
