# ===============================================================================================================================================================================
# TIME     FASTF      PCOOL      TCOOL      GKL        PITCH      Q1         Q2         Q3         Q4         Q5         Q6         Q7         Q8         Q9         Q10       
# (h)      (n/cmWs)   (MPa)      (Celsius)  (kg/s)     (mm)       (kW/m)     (kW/m)     (kW/m)     (kW/m)     (kW/m)     (kW/m)     (kW/m)     (kW/m)     (kW/m)     (kW/m)    
# ===============================================================================================================================================================================
0          4.328e+12  15.8       291.7      1.148e+06  12.70      15.358     24.228     26.776     27.984     28.627     28.701     28.166     26.847     23.455     12.622    
144        4.353e+12  15.8       291.7      1.148e+06  12.70      18.644     27.458     28.755     28.413     27.922     27.228     26.330     25.066     22.209     12.391    
1440       4.402e+12  15.8       291.7      1.148e+06  12.70      19.706     27.504     27.874     27.383     26.875     26.365     25.813     25.058     22.881     13.344    
3045.6     4.450e+12  15.8       291.7      1.148e+06  12.70      20.257     26.723     26.415     25.809     25.380     25.100     24.997     25.115     24.700     15.862    
4900.8     4.287e+12  15.8       273.3      1.198e+06  12.70      12.879     16.650     17.058     17.659     18.549     19.617     20.889     22.496     24.131     16.882    
4904.6     4.284e+12  15.8       283.4      1.171e+06  12.70      6.049      8.131      8.766      9.599      10.675     11.941     13.407     15.123     16.794     11.924    
4906.6     4.921e+12  15.8       291.7      1.148e+06  12.70      19.403     28.471     30.532     30.947     30.270     29.055     27.368     25.200     21.790     12.517    
5049.6     4.938e+12  15.8       291.7      1.148e+06  12.70      22.064     30.543     31.415     30.482     29.237     27.753     26.122     24.262     21.349     12.632    
6465.6     4.978e+12  15.8       291.7      1.148e+06  12.70      21.629     28.429     28.608     28.032     27.347     26.622     25.869     25.014     23.286     14.627    
7291.2     4.997e+12  15.8       291.7      1.148e+06  12.70      21.856     28.024     27.802     27.165     26.544     25.966     25.445     24.967     23.900     15.628    
7928.6     4.897e+12  15.8       283.2      1.172e+06  12.70      18.771     23.952     24.339     24.573     24.917     25.304     25.717     26.149     25.960     17.598    
7930.6     5.141e+12  15.8       291.7      1.142e+06  12.70      12.855     19.332     22.812     25.627     27.871     29.427     30.196     29.554     26.907     16.576    
8073.6     5.140e+12  15.8       291.7      1.142e+06  12.70      16.964     23.623     25.637     26.651     27.167     27.575     27.070     26.218     23.963     15.084    
12969.6    5.340e+12  15.8       291.7      1.142e+06  12.70      19.710     25.311     25.844     25.297     24.769     24.246     23.721     23.034     21.399     14.152    
15621.6    5.403e+12  15.8       291.7      1.142e+06  12.70      19.515     23.553     23.255     22.924     22.844     22.955     23.235     23.635     23.465     16.522    
16407.8    5.261e+12  15.8       281.2      1.172e+06  12.70      16.009     19.244     19.431     19.863     20.609     21.562     22.709     24.064     25.224     18.433    
16409.8    5.815e+12  15.8       291.7      1.148e+06  12.70      8.117      11.300     13.428     15.857     18.472     21.098     23.563     25.675     27.103     21.709    
16552.8    5.816e+12  15.8       291.7      1.148e+06  12.70      12.049     15.535     16.800     18.021     19.249     20.446     21.585     22.615     23.232     18.690    
21808.8    5.937e+12  15.8       291.7      1.148e+06  12.70      16.881     19.984     19.885     19.672     19.466     19.287     19.152     19.058     18.733     15.221    
23690.4    5.951e+12  15.8       291.7      1.148e+06  12.70      16.694     19.037     18.775     18.615     18.603     18.688     18.882     19.246     19.852     16.565    
24426.2    5.782e+12  15.8       281.1      1.178e+06  12.70      13.555     15.410     15.518     15.926     16.554     17.311     18.203     19.324     20.592     18.166    
24428.2    6.467e+12  15.8       291.7      1.144e+06  12.70      7.242      10.943     13.343     15.542     17.584     19.342     20.631     21.277     19.975     13.268    
24571.2    6.449e+12  15.8       291.7      1.144e+06  12.70      10.340     14.377     15.947     16.941     17.685     18.241     18.582     18.546     17.413     11.717    
28027.2    6.435e+12  15.8       291.7      1.144e+06  12.70      13.176     16.198     16.514     16.335     16.268     16.248     16.282     16.326     15.902     11.615    
30187.2    6.421e+12  15.8       291.7      1.144e+06  12.70      13.657     16.082     15.954     15.785     15.669     15.595     15.571     15.602     15.357     11.643    
31490.4    6.395e+12  15.8       291.7      1.144e+06  12.70      13.607     15.544     15.372     15.281     15.324     15.443     15.641     15.984     16.689     12.960    
31911.8    6.297e+12  15.8       286.4      1.160e+06  12.70      11.576     13.259     13.353     13.646     14.112     14.667     15.305     16.094     16.910     13.762    
31913.8    6.649e+12  15.8       291.7      1.146e+06  12.70      0.881      1.287      1.579      1.847      2.096      2.312      2.472      2.555      2.431      1.930     
32056.8    6.503e+12  15.8       291.7      1.146e+06  12.70      1.336      1.797      2.011      2.153      2.262      2.348      2.404      2.411      2.305      1.867     
35512.8    6.221e+12  15.8       291.7      1.146e+06  12.70      1.969      2.389      2.458      2.476      2.490      2.510      2.536      2.562      2.541      2.190     
37312.8    6.118e+12  15.8       291.7      1.146e+06  12.70      2.207      2.588      2.622      2.623      2.625      2.635      2.652      2.677      2.696      2.363     
39067.2    5.930e+12  15.8       291.7      1.146e+06  12.70      2.401      2.717      2.720      2.738      2.784      2.849      2.935      3.052      3.197      2.954     
40010.4    5.786e+12  15.8       281.2      1.175e+06  12.70      1.800      2.026      2.069      2.161      2.293      2.453      2.643      2.879      3.166      3.075     
