# ===============================================================================================================================================================================
# TIME     FASTF      PCOOL      TCOOL      GKL        PITCH      Q1         Q2         Q3         Q4         Q5         Q6         Q7         Q8         Q9         Q10       
# (h)      (n/cmWs)   (MPa)      (Celsius)  (kg/s)     (mm)       (kW/m)     (kW/m)     (kW/m)     (kW/m)     (kW/m)     (kW/m)     (kW/m)     (kW/m)     (kW/m)     (kW/m)    
# ===============================================================================================================================================================================
0          4.538e+12  15.8       291.7      1.148e+06  12.70      14.311     22.577     24.951     26.077     26.676     26.745     26.246     25.017     21.857     11.762    
144        4.556e+12  15.8       291.7      1.148e+06  12.70      17.427     25.665     26.877     26.558     26.099     25.451     24.611     23.429     20.759     11.582    
1440       4.584e+12  15.8       291.7      1.148e+06  12.70      18.532     25.866     26.214     25.752     25.275     24.795     24.275     23.566     21.518     12.549    
3045.6     4.612e+12  15.8       291.7      1.148e+06  12.70      19.175     25.295     25.004     24.430     24.024     23.760     23.661     23.774     23.381     15.015    
4900.8     4.426e+12  15.8       273.3      1.198e+06  12.70      12.224     15.804     16.191     16.761     17.605     18.619     19.827     21.352     22.904     16.024    
4904.6     4.433e+12  15.8       283.4      1.171e+06  12.70      5.735      7.709      8.311      9.101      10.121     11.321     12.711     14.338     15.922     11.305    
4906.6     5.359e+12  15.8       291.7      1.148e+06  12.70      17.761     26.061     27.948     28.327     27.707     26.595     25.051     23.067     19.946     11.458    
5049.6     5.375e+12  15.8       291.7      1.148e+06  12.70      20.189     27.948     28.746     27.892     26.752     25.395     23.902     22.200     19.535     11.559    
6465.6     5.382e+12  15.8       291.7      1.148e+06  12.70      19.943     26.213     26.377     25.846     25.215     24.546     23.852     23.064     21.470     13.487    
7291.2     5.378e+12  15.8       291.7      1.148e+06  12.70      20.242     25.953     25.748     25.158     24.583     24.048     23.565     23.122     22.134     14.473    
7928.6     5.254e+12  15.8       283.2      1.172e+06  12.70      17.449     22.265     22.624     22.842     23.162     23.522     23.905     24.307     24.131     16.359    
7930.6     5.265e+12  15.8       291.7      1.142e+06  12.70      12.472     18.756     22.132     24.863     27.041     28.551     29.297     28.674     26.105     16.082    
8073.6     5.261e+12  15.8       291.7      1.142e+06  12.70      16.477     22.945     24.901     25.886     26.388     26.784     26.293     25.466     23.275     14.651    
12969.6    5.421e+12  15.8       291.7      1.142e+06  12.70      19.302     24.787     25.309     24.774     24.256     23.744     23.230     22.557     20.955     13.859    
15621.6    5.472e+12  15.8       291.7      1.142e+06  12.70      19.156     23.119     22.826     22.501     22.422     22.532     22.807     23.199     23.033     16.217    
16407.8    5.332e+12  15.8       281.2      1.172e+06  12.70      15.709     18.883     19.067     19.490     20.222     21.158     22.283     23.613     24.751     18.088    
16409.8    5.962e+12  15.8       291.7      1.148e+06  12.70      8.013      11.155     13.256     15.654     18.236     20.828     23.262     25.347     26.756     21.431    
16552.8    5.965e+12  15.8       291.7      1.148e+06  12.70      11.889     15.330     16.577     17.782     18.994     20.175     21.299     22.316     22.925     18.442    
21808.8    6.063e+12  15.8       291.7      1.148e+06  12.70      16.695     19.764     19.666     19.456     19.252     19.075     18.941     18.849     18.527     15.053    
23690.4    6.070e+12  15.8       291.7      1.148e+06  12.70      16.533     18.853     18.594     18.435     18.424     18.508     18.700     19.061     19.660     16.405    
24426.2    5.891e+12  15.8       281.1      1.178e+06  12.70      13.439     15.278     15.385     15.790     16.413     17.163     18.047     19.158     20.416     18.010    
24428.2    6.605e+12  15.8       291.7      1.144e+06  12.70      7.223      10.914     13.307     15.500     17.536     19.289     20.575     21.219     19.921     13.232    
24571.2    6.582e+12  15.8       291.7      1.144e+06  12.70      10.309     14.335     15.899     16.891     17.632     18.186     18.526     18.491     17.361     11.682    
28027.2    6.558e+12  15.8       291.7      1.144e+06  12.70      13.138     16.152     16.466     16.288     16.222     16.202     16.235     16.279     15.856     11.582    
30187.2    6.540e+12  15.8       291.7      1.144e+06  12.70      13.616     16.034     15.906     15.738     15.622     15.548     15.524     15.555     15.311     11.608    
31490.4    6.516e+12  15.8       291.7      1.144e+06  12.70      13.562     15.492     15.321     15.230     15.274     15.392     15.589     15.931     16.633     12.917    
31911.8    6.416e+12  15.8       286.4      1.160e+06  12.70      11.540     13.218     13.311     13.603     14.068     14.621     15.256     16.043     16.857     13.719    
31913.8    6.716e+12  15.8       291.7      1.146e+06  12.70      0.927      1.354      1.660      1.942      2.204      2.432      2.600      2.687      2.557      2.030     
32056.8    6.612e+12  15.8       291.7      1.146e+06  12.70      1.402      1.886      2.110      2.259      2.374      2.464      2.523      2.530      2.419      1.959     
35512.8    6.315e+12  15.8       291.7      1.146e+06  12.70      2.057      2.496      2.568      2.587      2.601      2.622      2.649      2.676      2.655      2.288     
37312.8    6.170e+12  15.8       291.7      1.146e+06  12.70      2.301      2.698      2.733      2.734      2.737      2.746      2.764      2.790      2.810      2.463     
39067.2    6.049e+12  15.8       291.7      1.146e+06  12.70      2.494      2.824      2.827      2.845      2.892      2.961      3.050      3.172      3.322      3.069     
40010.4    5.885e+12  15.8       281.2      1.175e+06  12.70      1.870      2.105      2.150      2.245      2.382      2.549      2.746      2.991      3.290      3.195     
