# ===============================================================================================================================================================================
# TIME     FASTF      PCOOL      TCOOL      GKL        PITCH      Q1         Q2         Q3         Q4         Q5         Q6         Q7         Q8         Q9         Q10       
# (h)      (n/cmWs)   (MPa)      (Celsius)  (kg/s)     (mm)       (kW/m)     (kW/m)     (kW/m)     (kW/m)     (kW/m)     (kW/m)     (kW/m)     (kW/m)     (kW/m)     (kW/m)    
# ===============================================================================================================================================================================
0          4.616e+12  15.8       291.7      1.148e+06  12.70      14.086     22.221     24.557     25.664     26.253     26.319     25.827     24.617     21.506     11.573    
144        4.622e+12  15.8       291.7      1.148e+06  12.70      17.181     25.302     26.497     26.181     25.728     25.088     24.260     23.094     20.462     11.417    
1440       4.577e+12  15.8       291.7      1.148e+06  12.70      18.559     25.902     26.250     25.788     25.309     24.829     24.308     23.598     21.547     12.567    
3045.6     4.547e+12  15.8       291.7      1.148e+06  12.70      19.449     25.657     25.362     24.780     24.369     24.100     24.001     24.114     23.716     15.231    
4900.8     4.317e+12  15.8       273.3      1.198e+06  12.70      12.549     16.223     16.620     17.206     18.073     19.114     20.353     21.919     23.512     16.450    
4904.6     4.329e+12  15.8       283.4      1.171e+06  12.70      5.886      7.911      8.530      9.340      10.388     11.620     13.045     14.716     16.342     11.603    
4906.6     5.064e+12  15.8       291.7      1.148e+06  12.70      17.888     26.248     28.149     28.532     27.908     26.788     25.234     23.234     20.091     11.540    
5049.6     5.069e+12  15.8       291.7      1.148e+06  12.70      20.397     28.235     29.042     28.179     27.028     25.657     24.149     22.429     19.736     11.677    
6465.6     5.038e+12  15.8       291.7      1.148e+06  12.70      20.316     26.702     26.870     26.329     25.686     25.005     24.297     23.495     21.872     13.738    
7291.2     5.022e+12  15.8       291.7      1.148e+06  12.70      20.703     26.544     26.334     25.731     25.143     24.595     24.102     23.649     22.639     14.802    
7928.6     4.903e+12  15.8       283.2      1.172e+06  12.70      17.839     22.762     23.129     23.352     23.680     24.047     24.439     24.850     24.670     16.724    
7930.6     4.810e+12  15.8       291.7      1.142e+06  12.70      13.769     20.708     24.438     27.456     29.862     31.531     32.357     31.671     28.836     17.765    
8073.6     4.817e+12  15.8       291.7      1.142e+06  12.70      18.157     25.285     27.441     28.527     29.081     29.518     28.978     28.067     25.653     16.149    
12969.6    5.123e+12  15.8       291.7      1.142e+06  12.70      20.614     26.472     27.030     26.458     25.905     25.358     24.808     24.089     22.379     14.800    
15621.6    5.225e+12  15.8       291.7      1.142e+06  12.70      20.283     24.479     24.169     23.825     23.741     23.857     24.148     24.563     24.386     17.169    
16407.8    5.100e+12  15.8       281.2      1.172e+06  12.70      16.608     19.963     20.158     20.605     21.379     22.367     23.558     24.963     26.165     19.120    
16409.8    5.734e+12  15.8       291.7      1.148e+06  12.70      8.268      11.510     13.679     16.153     18.819     21.495     24.008     26.162     27.618     22.122    
16552.8    5.742e+12  15.8       291.7      1.148e+06  12.70      12.270     15.821     17.110     18.355     19.607     20.827     21.989     23.039     23.669     19.041    
21808.8    5.873e+12  15.8       291.7      1.148e+06  12.70      17.185     20.345     20.244     20.028     19.819     19.637     19.500     19.405     19.075     15.498    
23690.4    5.875e+12  15.8       291.7      1.148e+06  12.70      17.018     19.407     19.140     18.977     18.965     19.052     19.249     19.621     20.239     16.888    
24426.2    5.705e+12  15.8       281.1      1.178e+06  12.70      13.823     15.715     15.824     16.241     16.881     17.653     18.563     19.706     21.000     18.526    
24428.2    6.366e+12  15.8       291.7      1.144e+06  12.70      7.712      11.653     14.208     16.548     18.720     20.591     21.963     22.648     21.262     14.120    
24571.2    6.369e+12  15.8       291.7      1.144e+06  12.70      10.943     15.216     16.877     17.928     18.715     19.302     19.662     19.623     18.424     12.396    
28027.2    6.438e+12  15.8       291.7      1.144e+06  12.70      13.715     16.861     17.190     17.004     16.934     16.913     16.948     16.994     16.553     12.089    
30187.2    6.431e+12  15.8       291.7      1.144e+06  12.70      14.187     16.707     16.573     16.398     16.277     16.201     16.176     16.208     15.953     12.095    
31490.4    6.395e+12  15.8       291.7      1.144e+06  12.70      14.130     16.140     15.961     15.867     15.912     16.036     16.241     16.598     17.330     13.458    
31911.8    6.290e+12  15.8       286.4      1.160e+06  12.70      12.044     13.795     13.892     14.196     14.681     15.259     15.922     16.744     17.594     14.318    
31913.8    6.796e+12  15.8       291.7      1.146e+06  12.70      0.708      1.033      1.268      1.483      1.683      1.856      1.985      2.051      1.952      1.549     
32056.8    6.418e+12  15.8       291.7      1.146e+06  12.70      1.104      1.484      1.661      1.778      1.868      1.939      1.986      1.991      1.904      1.541     
35512.8    5.843e+12  15.8       291.7      1.146e+06  12.70      1.716      2.082      2.142      2.158      2.170      2.187      2.210      2.233      2.215      1.909     
37312.8    5.527e+12  15.8       291.7      1.146e+06  12.70      1.990      2.333      2.363      2.364      2.366      2.374      2.390      2.413      2.429      2.130     
39067.2    5.144e+12  15.8       291.7      1.146e+06  12.70      2.254      2.551      2.554      2.571      2.614      2.675      2.756      2.866      3.002      2.773     
40010.4    5.033e+12  15.8       281.2      1.175e+06  12.70      1.673      1.883      1.924      2.009      2.131      2.280      2.457      2.676      2.943      2.858     
