# ===============================================================================================================================================================================
# TIME     FASTF      PCOOL      TCOOL      GKL        PITCH      Q1         Q2         Q3         Q4         Q5         Q6         Q7         Q8         Q9         Q10       
# (h)      (n/cmWs)   (MPa)      (Celsius)  (kg/s)     (mm)       (kW/m)     (kW/m)     (kW/m)     (kW/m)     (kW/m)     (kW/m)     (kW/m)     (kW/m)     (kW/m)     (kW/m)    
# ===============================================================================================================================================================================
0          4.249e+12  15.8       291.7      1.148e+06  12.70      11.212     17.687     19.547     20.427     20.896     20.949     20.557     19.594     17.118     9.212     
144        4.261e+12  15.8       291.7      1.148e+06  12.70      13.834     20.374     21.336     21.082     20.717     20.202     19.534     18.596     16.476     9.193     
1440       4.299e+12  15.8       291.7      1.148e+06  12.70      14.816     20.678     20.956     20.587     20.205     19.821     19.406     18.839     17.202     10.032    
3045.6     4.318e+12  15.8       291.7      1.148e+06  12.70      15.534     20.492     20.256     19.791     19.463     19.248     19.169     19.260     18.942     12.164    
4900.8     4.130e+12  15.8       273.3      1.198e+06  12.70      9.871      12.761     13.074     13.535     14.216     15.035     16.010     17.242     18.495     12.939    
4904.6     4.139e+12  15.8       283.4      1.171e+06  12.70      4.610      6.196      6.681      7.315      8.136      9.101      10.218     11.526     12.799     9.088     
4906.6     4.810e+12  15.8       291.7      1.148e+06  12.70      17.118     25.118     26.938     27.304     26.707     25.636     24.148     22.234     19.226     11.043    
5049.6     4.821e+12  15.8       291.7      1.148e+06  12.70      19.572     27.094     27.868     27.040     25.936     24.620     23.173     21.522     18.938     11.205    
6465.6     4.856e+12  15.8       291.7      1.148e+06  12.70      19.318     25.391     25.550     25.036     24.425     23.777     23.105     22.341     20.798     13.064    
7291.2     4.866e+12  15.8       291.7      1.148e+06  12.70      19.608     25.140     24.942     24.370     23.813     23.295     22.828     22.399     21.442     14.020    
7928.6     4.771e+12  15.8       283.2      1.172e+06  12.70      16.865     21.519     21.867     22.078     22.387     22.735     23.105     23.494     23.324     15.811    
7930.6     5.115e+12  15.8       291.7      1.142e+06  12.70      12.601     18.952     22.365     25.127     27.330     28.857     29.613     28.985     26.391     16.259    
8073.6     5.112e+12  15.8       291.7      1.142e+06  12.70      16.554     23.052     25.018     26.008     26.513     26.912     26.419     25.589     23.388     14.723    
12969.6    5.300e+12  15.8       291.7      1.142e+06  12.70      19.611     25.184     25.715     25.171     24.644     24.124     23.601     22.917     21.290     14.080    
15621.6    5.376e+12  15.8       291.7      1.142e+06  12.70      19.351     23.355     23.059     22.731     22.651     22.761     23.038     23.434     23.265     16.380    
16407.8    5.242e+12  15.8       281.2      1.172e+06  12.70      15.891     19.101     19.288     19.716     20.456     21.402     22.541     23.885     25.035     18.295    
16409.8    5.727e+12  15.8       291.7      1.148e+06  12.70      8.494      11.825     14.052     16.595     19.333     22.083     24.664     26.876     28.372     22.727    
16552.8    5.729e+12  15.8       291.7      1.148e+06  12.70      12.524     16.148     17.463     18.734     20.012     21.257     22.443     23.515     24.158     19.434    
21808.8    5.903e+12  15.8       291.7      1.148e+06  12.70      17.408     20.609     20.506     20.287     20.075     19.891     19.752     19.656     19.322     15.699    
23690.4    5.936e+12  15.8       291.7      1.148e+06  12.70      17.167     19.576     19.307     19.142     19.130     19.218     19.417     19.792     20.416     17.035    
24426.2    5.776e+12  15.8       281.1      1.178e+06  12.70      13.998     15.914     16.025     16.447     17.096     17.877     18.798     19.956     21.266     18.761    
24428.2    6.473e+12  15.8       291.7      1.144e+06  12.70      7.507      11.343     13.829     16.107     18.222     20.043     21.378     22.045     20.695     13.744    
24571.2    6.448e+12  15.8       291.7      1.144e+06  12.70      10.758     14.959     16.591     17.625     18.398     18.975     19.329     19.291     18.112     12.186    
28027.2    6.442e+12  15.8       291.7      1.144e+06  12.70      13.574     16.688     17.013     16.829     16.760     16.739     16.774     16.819     16.382     11.965    
30187.2    6.433e+12  15.8       291.7      1.144e+06  12.70      13.985     16.469     16.337     16.165     16.046     15.971     15.946     15.978     15.727     11.923    
31490.4    6.416e+12  15.8       291.7      1.144e+06  12.70      13.888     15.864     15.688     15.595     15.640     15.761     15.963     16.314     17.033     13.228    
31911.8    6.318e+12  15.8       286.4      1.160e+06  12.70      11.783     13.496     13.591     13.889     14.364     14.929     15.578     16.381     17.213     14.008    
31913.8    6.683e+12  15.8       291.7      1.146e+06  12.70      2.192      3.202      3.927      4.594      5.213      5.751      6.149      6.354      6.047      4.800     
32056.8    6.575e+12  15.8       291.7      1.146e+06  12.70      3.241      4.359      4.877      5.222      5.487      5.694      5.831      5.846      5.590      4.526     
35512.8    6.376e+12  15.8       291.7      1.146e+06  12.70      4.499      5.459      5.617      5.658      5.690      5.735      5.795      5.854      5.807      5.004     
37312.8    6.277e+12  15.8       291.7      1.146e+06  12.70      4.883      5.726      5.800      5.802      5.808      5.828      5.866      5.922      5.963      5.227     
39067.2    6.174e+12  15.8       291.7      1.146e+06  12.70      5.137      5.815      5.821      5.859      5.956      6.096      6.280      6.531      6.840      6.320     
40010.4    6.004e+12  15.8       281.2      1.175e+06  12.70      3.887      4.375      4.469      4.666      4.952      5.298      5.708      6.217      6.838      6.640     
