# ===============================================================================================================================================================================
# TIME     FASTF      PCOOL      TCOOL      GKL        PITCH      Q1         Q2         Q3         Q4         Q5         Q6         Q7         Q8         Q9         Q10       
# (h)      (n/cmWs)   (MPa)      (Celsius)  (kg/s)     (mm)       (kW/m)     (kW/m)     (kW/m)     (kW/m)     (kW/m)     (kW/m)     (kW/m)     (kW/m)     (kW/m)     (kW/m)    
# ===============================================================================================================================================================================
0          4.641e+12  15.8       291.7      1.148e+06  12.70      14.024     22.123     24.449     25.551     26.137     26.203     25.713     24.508     21.411     11.522    
144        4.674e+12  15.8       291.7      1.148e+06  12.70      17.036     25.090     26.274     25.961     25.512     24.878     24.056     22.900     20.290     11.321    
1440       4.751e+12  15.8       291.7      1.148e+06  12.70      17.916     25.006     25.342     24.895     24.434     23.970     23.467     22.781     20.802     12.132    
3045.6     4.808e+12  15.8       291.7      1.148e+06  12.70      18.394     24.265     23.986     23.435     23.046     22.792     22.698     22.806     22.429     14.404    
4900.8     4.622e+12  15.8       273.3      1.198e+06  12.70      11.675     15.093     15.463     16.008     16.814     17.783     18.936     20.393     21.875     15.304    
4904.6     4.615e+12  15.8       283.4      1.171e+06  12.70      5.474      7.358      7.933      8.687      9.661      10.806     12.133     13.686     15.198     10.791    
4906.6     5.126e+12  15.8       291.7      1.148e+06  12.70      18.569     27.247     29.220     29.617     28.970     27.808     26.193     24.118     20.855     11.979    
5049.6     5.139e+12  15.8       291.7      1.148e+06  12.70      21.250     29.417     30.258     29.358     28.159     26.731     25.160     23.368     20.562     12.166    
6465.6     5.182e+12  15.8       291.7      1.148e+06  12.70      20.882     27.446     27.618     27.062     26.401     25.702     24.974     24.150     22.481     14.121    
7291.2     5.191e+12  15.8       291.7      1.148e+06  12.70      21.122     27.082     26.868     26.252     25.652     25.094     24.591     24.128     23.098     15.103    
7928.6     5.082e+12  15.8       283.2      1.172e+06  12.70      18.103     23.099     23.472     23.698     24.030     24.404     24.801     25.218     25.036     16.972    
7930.6     5.585e+12  15.8       291.7      1.142e+06  12.70      11.888     17.879     21.100     23.705     25.783     27.224     27.937     27.345     24.897     15.338    
8073.6     5.581e+12  15.8       291.7      1.142e+06  12.70      15.672     21.824     23.685     24.623     25.101     25.478     25.012     24.225     22.142     13.939    
12969.6    5.689e+12  15.8       291.7      1.142e+06  12.70      18.594     23.878     24.381     23.865     23.366     22.873     22.377     21.728     20.186     13.350    
15621.6    5.717e+12  15.8       291.7      1.142e+06  12.70      18.522     22.354     22.071     21.757     21.680     21.786     22.051     22.430     22.269     15.679    
16407.8    5.558e+12  15.8       281.2      1.172e+06  12.70      15.239     18.318     18.496     18.907     19.617     20.524     21.616     22.905     24.008     17.545    
16409.8    6.058e+12  15.8       291.7      1.148e+06  12.70      7.718      10.744     12.768     15.078     17.566     20.064     22.410     24.419     25.779     20.649    
16552.8    6.060e+12  15.8       291.7      1.148e+06  12.70      11.467     14.785     15.989     17.152     18.322     19.463     20.548     21.530     22.119     17.794    
21808.8    6.098e+12  15.8       291.7      1.148e+06  12.70      16.523     19.562     19.465     19.257     19.055     18.881     18.749     18.657     18.340     14.901    
23690.4    6.092e+12  15.8       291.7      1.148e+06  12.70      16.440     18.748     18.490     18.332     18.321     18.405     18.596     18.955     19.552     16.315    
24426.2    5.909e+12  15.8       281.1      1.178e+06  12.70      13.359     15.187     15.293     15.696     16.315     17.060     17.940     19.044     20.295     17.904    
24428.2    6.609e+12  15.8       291.7      1.144e+06  12.70      6.582      9.945      12.125     14.123     15.977     17.573     18.744     19.329     18.145     12.051    
24571.2    6.574e+12  15.8       291.7      1.144e+06  12.70      9.441      13.127     14.560     15.467     16.145     16.652     16.963     16.929     15.894     10.694    
28027.2    6.488e+12  15.8       291.7      1.144e+06  12.70      12.209     15.009     15.301     15.136     15.074     15.055     15.086     15.127     14.734     10.761    
30187.2    6.456e+12  15.8       291.7      1.144e+06  12.70      12.734     14.996     14.876     14.719     14.611     14.542     14.519     14.549     14.320     10.856    
31490.4    6.423e+12  15.8       291.7      1.144e+06  12.70      12.745     14.559     14.398     14.312     14.353     14.465     14.650     14.972     15.632     12.140    
31911.8    6.323e+12  15.8       286.4      1.160e+06  12.70      10.831     12.406     12.493     12.767     13.203     13.723     14.319     15.058     15.822     12.876    
31913.8    6.753e+12  15.8       291.7      1.146e+06  12.70      1.024      1.495      1.834      2.145      2.434      2.686      2.871      2.967      2.824      2.241     
32056.8    6.645e+12  15.8       291.7      1.146e+06  12.70      1.550      2.085      2.332      2.497      2.624      2.723      2.789      2.796      2.673      2.164     
35512.8    6.439e+12  15.8       291.7      1.146e+06  12.70      2.259      2.741      2.820      2.841      2.857      2.880      2.910      2.940      2.916      2.512     
37312.8    6.313e+12  15.8       291.7      1.146e+06  12.70      2.510      2.943      2.981      2.982      2.985      2.995      3.015      3.043      3.065      2.686     
39067.2    6.228e+12  15.8       291.7      1.146e+06  12.70      2.710      3.067      3.071      3.091      3.142      3.216      3.313      3.445      3.609      3.334     
40010.4    6.042e+12  15.8       281.2      1.175e+06  12.70      2.041      2.297      2.347      2.450      2.600      2.782      2.997      3.265      3.591      3.487     
