# ===============================================================================================================================================================================
# TIME     FASTF      PCOOL      TCOOL      GKL        PITCH      Q1         Q2         Q3         Q4         Q5         Q6         Q7         Q8         Q9         Q10       
# (h)      (n/cmWs)   (MPa)      (Celsius)  (kg/s)     (mm)       (kW/m)     (kW/m)     (kW/m)     (kW/m)     (kW/m)     (kW/m)     (kW/m)     (kW/m)     (kW/m)     (kW/m)    
# ===============================================================================================================================================================================
0          4.103e+12  15.8       291.7      1.148e+06  12.70      15.521     24.485     27.059     28.278     28.927     29.000     28.458     27.124     23.697     12.752    
144        4.130e+12  15.8       291.7      1.148e+06  12.70      18.871     27.791     29.103     28.756     28.259     27.556     26.646     25.366     22.475     12.540    
1440       4.198e+12  15.8       291.7      1.148e+06  12.70      19.868     27.729     28.102     27.607     27.095     26.580     26.023     25.263     23.068     13.453    
3045.6     4.259e+12  15.8       291.7      1.148e+06  12.70      20.388     26.895     26.586     25.976     25.544     25.263     25.159     25.278     24.860     15.965    
4900.8     4.106e+12  15.8       273.3      1.198e+06  12.70      12.924     16.708     17.117     17.721     18.613     19.686     20.963     22.575     24.216     16.942    
4904.6     4.105e+12  15.8       283.4      1.171e+06  12.70      6.061      8.147      8.784      9.618      10.697     11.965     13.434     15.154     16.828     11.949    
4906.6     4.670e+12  15.8       291.7      1.148e+06  12.70      20.575     30.191     32.378     32.818     32.101     30.813     29.024     26.725     23.109     13.274    
5049.6     4.687e+12  15.8       291.7      1.148e+06  12.70      23.395     32.385     33.311     32.321     31.001     29.428     27.699     25.726     22.637     13.393    
6465.6     4.747e+12  15.8       291.7      1.148e+06  12.70      22.813     29.984     30.172     29.565     28.843     28.078     27.284     26.383     24.560     15.427    
7291.2     4.774e+12  15.8       291.7      1.148e+06  12.70      22.986     29.472     29.239     28.569     27.916     27.308     26.761     26.258     25.136     16.435    
7928.6     4.686e+12  15.8       283.2      1.172e+06  12.70      19.719     25.161     25.567     25.814     26.175     26.582     27.015     27.469     27.271     18.487    
7930.6     5.028e+12  15.8       291.7      1.142e+06  12.70      12.979     19.520     23.036     25.881     28.149     29.723     30.501     29.855     27.182     16.746    
8073.6     5.026e+12  15.8       291.7      1.142e+06  12.70      17.117     23.837     25.870     26.894     27.416     27.828     27.319     26.460     24.184     15.225    
12969.6    5.227e+12  15.8       291.7      1.142e+06  12.70      19.884     25.535     26.072     25.521     24.987     24.460     23.929     23.236     21.586     14.276    
15621.6    5.288e+12  15.8       291.7      1.142e+06  12.70      19.657     23.724     23.424     23.090     23.009     23.121     23.403     23.805     23.633     16.639    
16407.8    5.150e+12  15.8       281.2      1.172e+06  12.70      16.127     19.385     19.575     20.009     20.760     21.720     22.876     24.240     25.408     18.567    
16409.8    5.653e+12  15.8       291.7      1.148e+06  12.70      8.301      11.556     13.733     16.218     18.894     21.581     24.104     26.266     27.728     22.211    
16552.8    5.659e+12  15.8       291.7      1.148e+06  12.70      12.301     15.860     17.152     18.400     19.655     20.878     22.042     23.096     23.727     19.088    
21808.8    5.787e+12  15.8       291.7      1.148e+06  12.70      17.191     20.353     20.252     20.035     19.826     19.644     19.507     19.412     19.082     15.504    
23690.4    5.810e+12  15.8       291.7      1.148e+06  12.70      16.988     19.373     19.106     18.943     18.931     19.018     19.215     19.587     20.203     16.858    
24426.2    5.643e+12  15.8       281.1      1.178e+06  12.70      13.804     15.694     15.803     16.220     16.859     17.630     18.538     19.680     20.972     18.501    
24428.2    6.322e+12  15.8       291.7      1.144e+06  12.70      7.120      10.758     13.117     15.278     17.283     19.010     20.276     20.909     19.629     13.036    
24571.2    6.296e+12  15.8       291.7      1.144e+06  12.70      10.199     14.182     15.730     16.710     17.443     17.990     18.326     18.290     17.172     11.554    
28027.2    6.260e+12  15.8       291.7      1.144e+06  12.70      13.050     16.044     16.356     16.180     16.113     16.093     16.127     16.170     15.750     11.503    
30187.2    6.240e+12  15.8       291.7      1.144e+06  12.70      13.555     15.963     15.835     15.668     15.553     15.479     15.456     15.487     15.243     11.556    
31490.4    6.212e+12  15.8       291.7      1.144e+06  12.70      13.528     15.453     15.282     15.191     15.235     15.353     15.550     15.891     16.592     12.885    
31911.8    6.115e+12  15.8       286.4      1.160e+06  12.70      11.494     13.165     13.258     13.548     14.012     14.563     15.196     15.980     16.791     13.664    
31913.8    6.508e+12  15.8       291.7      1.146e+06  12.70      1.231      1.798      2.205      2.580      2.928      3.230      3.453      3.568      3.396      2.695     
32056.8    6.402e+12  15.8       291.7      1.146e+06  12.70      1.850      2.488      2.784      2.981      3.132      3.250      3.329      3.337      3.191      2.583     
35512.8    6.190e+12  15.8       291.7      1.146e+06  12.70      2.669      3.238      3.332      3.356      3.375      3.402      3.437      3.472      3.445      2.968     
37312.8    6.098e+12  15.8       291.7      1.146e+06  12.70      2.953      3.463      3.508      3.509      3.513      3.525      3.548      3.581      3.606      3.161     
39067.2    5.977e+12  15.8       291.7      1.146e+06  12.70      3.166      3.584      3.588      3.611      3.671      3.758      3.871      4.026      4.216      3.896     
40010.4    5.820e+12  15.8       281.2      1.175e+06  12.70      2.386      2.685      2.743      2.864      3.039      3.252      3.503      3.816      4.197      4.076     
