# ===============================================================================================================================================================================
# TIME     FASTF      PCOOL      TCOOL      GKL        PITCH      Q1         Q2         Q3         Q4         Q5         Q6         Q7         Q8         Q9         Q10       
# (h)      (n/cmWs)   (MPa)      (Celsius)  (kg/s)     (mm)       (kW/m)     (kW/m)     (kW/m)     (kW/m)     (kW/m)     (kW/m)     (kW/m)     (kW/m)     (kW/m)     (kW/m)    
# ===============================================================================================================================================================================
0          4.112e+12  15.8       291.7      1.148e+06  12.70      17.207     27.144     29.998     31.349     32.068     32.149     31.548     30.070     26.270     14.137    
144        4.139e+12  15.8       291.7      1.148e+06  12.70      20.798     30.629     32.075     31.693     31.145     30.370     29.367     27.956     24.770     13.821    
1440       4.222e+12  15.8       291.7      1.148e+06  12.70      21.710     30.300     30.707     30.166     29.607     29.044     28.436     27.604     25.206     14.700    
3045.6     4.300e+12  15.8       291.7      1.148e+06  12.70      22.064     29.106     28.771     28.111     27.644     27.340     27.227     27.356     26.904     17.278    
4900.8     4.159e+12  15.8       273.3      1.198e+06  12.70      13.911     17.984     18.425     19.074     20.035     21.189     22.563     24.299     26.065     18.236    
4904.6     4.153e+12  15.8       283.4      1.171e+06  12.70      6.540      8.791      9.478      10.378     11.542     12.911     14.495     16.351     18.158     12.893    
4906.6     4.608e+12  15.8       291.7      1.148e+06  12.70      20.889     30.651     32.871     33.318     32.590     31.283     29.467     27.132     23.461     13.476    
5049.6     4.624e+12  15.8       291.7      1.148e+06  12.70      23.902     33.088     34.033     33.022     31.674     30.066     28.300     26.284     23.128     13.684    
6465.6     4.688e+12  15.8       291.7      1.148e+06  12.70      23.340     30.677     30.870     30.248     29.509     28.727     27.914     26.992     25.128     15.784    
7291.2     4.714e+12  15.8       291.7      1.148e+06  12.70      23.507     30.140     29.902     29.216     28.549     27.927     27.367     26.853     25.706     16.808    
7928.6     4.627e+12  15.8       283.2      1.172e+06  12.70      20.054     25.588     26.001     26.252     26.620     27.033     27.474     27.935     27.734     18.801    
7930.6     5.078e+12  15.8       291.7      1.142e+06  12.70      12.863     19.346     22.830     25.649     27.898     29.457     30.229     29.587     26.939     16.596    
8073.6     5.076e+12  15.8       291.7      1.142e+06  12.70      16.994     23.666     25.684     26.700     27.219     27.628     27.122     26.269     24.010     15.115    
12969.6    5.248e+12  15.8       291.7      1.142e+06  12.70      19.822     25.455     25.991     25.441     24.909     24.383     23.855     23.163     21.519     14.231    
15621.6    5.300e+12  15.8       291.7      1.142e+06  12.70      19.677     23.749     23.448     23.114     23.033     23.145     23.427     23.830     23.658     16.657    
16407.8    5.156e+12  15.8       281.2      1.172e+06  12.70      16.155     19.419     19.609     20.044     20.796     21.758     22.916     24.282     25.452     18.600    
16409.8    5.632e+12  15.8       291.7      1.148e+06  12.70      8.263      11.503     13.670     16.143     18.807     21.482     23.993     26.145     27.600     22.108    
16552.8    5.635e+12  15.8       291.7      1.148e+06  12.70      12.297     15.856     17.147     18.394     19.649     20.872     22.036     23.089     23.720     19.082    
21808.8    5.755e+12  15.8       291.7      1.148e+06  12.70      17.619     20.859     20.756     20.534     20.319     20.133     19.993     19.895     19.557     15.890    
23690.4    5.780e+12  15.8       291.7      1.148e+06  12.70      17.438     19.886     19.612     19.446     19.433     19.522     19.725     20.106     20.739     17.305    
24426.2    5.614e+12  15.8       281.1      1.178e+06  12.70      14.117     16.049     16.161     16.587     17.241     18.029     18.958     20.125     21.447     18.920    
24428.2    6.275e+12  15.8       291.7      1.144e+06  12.70      6.764      10.220     12.460     14.513     16.417     18.058     19.261     19.862     18.646     12.383    
24571.2    6.248e+12  15.8       291.7      1.144e+06  12.70      9.673      13.450     14.918     15.847     16.543     17.062     17.380     17.346     16.285     10.957    
28027.2    6.199e+12  15.8       291.7      1.144e+06  12.70      12.501     15.369     15.668     15.499     15.435     15.416     15.448     15.490     15.087     11.019    
30187.2    6.174e+12  15.8       291.7      1.144e+06  12.70      13.049     15.366     15.244     15.082     14.972     14.901     14.878     14.908     14.674     11.125    
31490.4    6.146e+12  15.8       291.7      1.144e+06  12.70      13.071     14.931     14.765     14.678     14.720     14.834     15.024     15.354     16.031     12.450    
31911.8    6.045e+12  15.8       286.4      1.160e+06  12.70      11.128     12.746     12.836     13.117     13.565     14.099     14.712     15.470     16.256     13.229    
31913.8    6.429e+12  15.8       291.7      1.146e+06  12.70      0.577      0.843      1.034      1.209      1.372      1.514      1.619      1.673      1.592      1.264     
32056.8    6.318e+12  15.8       291.7      1.146e+06  12.70      0.886      1.192      1.334      1.428      1.501      1.557      1.595      1.599      1.529      1.238     
35512.8    6.122e+12  15.8       291.7      1.146e+06  12.70      1.329      1.612      1.659      1.671      1.680      1.694      1.711      1.729      1.715      1.478     
37312.8    6.012e+12  15.8       291.7      1.146e+06  12.70      1.498      1.757      1.779      1.780      1.782      1.788      1.800      1.817      1.829      1.604     
39067.2    5.907e+12  15.8       291.7      1.146e+06  12.70      1.646      1.863      1.865      1.877      1.908      1.953      2.012      2.092      2.191      2.025     
40010.4    5.752e+12  15.8       281.2      1.175e+06  12.70      1.232      1.387      1.417      1.479      1.570      1.680      1.810      1.971      2.168      2.105     
