# ===============================================================================================================================================================================
# TIME     FASTF      PCOOL      TCOOL      GKL        PITCH      Q1         Q2         Q3         Q4         Q5         Q6         Q7         Q8         Q9         Q10       
# (h)      (n/cmWs)   (MPa)      (Celsius)  (kg/s)     (mm)       (kW/m)     (kW/m)     (kW/m)     (kW/m)     (kW/m)     (kW/m)     (kW/m)     (kW/m)     (kW/m)     (kW/m)    
# ===============================================================================================================================================================================
0          4.217e+12  15.8       291.7      1.148e+06  12.70      13.850     21.848     24.145     25.233     25.811     25.877     25.393     24.203     21.145     11.379    
144        4.235e+12  15.8       291.7      1.148e+06  12.70      16.953     24.967     26.146     25.835     25.388     24.756     23.939     22.789     20.191     11.266    
1440       4.273e+12  15.8       291.7      1.148e+06  12.70      17.985     25.102     25.439     24.991     24.528     24.062     23.558     22.869     20.882     12.179    
3045.6     4.308e+12  15.8       291.7      1.148e+06  12.70      18.618     24.561     24.279     23.721     23.327     23.070     22.975     23.084     22.703     14.580    
4900.8     4.135e+12  15.8       273.3      1.198e+06  12.70      11.742     15.180     15.551     16.100     16.911     17.885     19.045     20.510     22.000     15.392    
4904.6     4.136e+12  15.8       283.4      1.171e+06  12.70      5.505      7.399      7.977      8.735      9.715      10.867     12.200     13.762     15.283     10.851    
4906.6     4.624e+12  15.8       291.7      1.148e+06  12.70      19.411     28.483     30.546     30.961     30.285     29.070     27.382     25.213     21.801     12.523    
5049.6     4.634e+12  15.8       291.7      1.148e+06  12.70      22.347     30.935     31.819     30.874     29.613     28.110     26.458     24.574     21.623     12.794    
6465.6     4.682e+12  15.8       291.7      1.148e+06  12.70      22.028     28.953     29.134     28.548     27.850     27.112     26.345     25.475     23.715     14.896    
7291.2     4.698e+12  15.8       291.7      1.148e+06  12.70      22.279     28.564     28.339     27.689     27.057     26.468     25.937     25.449     24.362     15.929    
7928.6     4.607e+12  15.8       283.2      1.172e+06  12.70      18.983     24.221     24.613     24.850     25.198     25.589     26.006     26.443     26.252     17.796    
7930.6     5.085e+12  15.8       291.7      1.142e+06  12.70      12.097     18.193     21.469     24.120     26.235     27.701     28.427     27.824     25.333     15.607    
8073.6     5.075e+12  15.8       291.7      1.142e+06  12.70      16.013     22.300     24.201     25.159     25.648     26.033     25.557     24.753     22.625     14.243    
12969.6    5.232e+12  15.8       291.7      1.142e+06  12.70      18.964     24.353     24.866     24.340     23.831     23.328     22.822     22.161     20.588     13.615    
15621.6    5.292e+12  15.8       291.7      1.142e+06  12.70      18.857     22.759     22.471     22.151     22.073     22.180     22.450     22.836     22.672     15.962    
16407.8    5.159e+12  15.8       281.2      1.172e+06  12.70      15.452     18.574     18.755     19.171     19.891     20.811     21.918     23.226     24.344     17.790    
16409.8    5.693e+12  15.8       291.7      1.148e+06  12.70      8.560      11.916     14.161     16.723     19.483     22.254     24.855     27.084     28.592     22.903    
16552.8    5.707e+12  15.8       291.7      1.148e+06  12.70      12.685     16.357     17.688     18.975     20.270     21.531     22.732     23.818     24.470     19.685    
21808.8    5.968e+12  15.8       291.7      1.148e+06  12.70      17.949     21.250     21.145     20.919     20.700     20.510     20.367     20.268     19.923     16.187    
23690.4    6.011e+12  15.8       291.7      1.148e+06  12.70      17.710     20.196     19.918     19.748     19.736     19.826     20.032     20.419     21.062     17.575    
24426.2    5.841e+12  15.8       281.1      1.178e+06  12.70      14.350     16.315     16.429     16.861     17.526     18.327     19.272     20.459     21.802     19.233    
24428.2    6.406e+12  15.8       291.7      1.144e+06  12.70      7.227      10.920     13.314     15.507     17.543     19.296     20.581     21.224     19.924     13.232    
24571.2    6.395e+12  15.8       291.7      1.144e+06  12.70      10.276     14.288     15.848     16.835     17.573     18.125     18.463     18.427     17.300     11.640    
28027.2    6.454e+12  15.8       291.7      1.144e+06  12.70      12.951     15.922     16.233     16.057     15.991     15.971     16.004     16.048     15.631     11.416    
30187.2    6.460e+12  15.8       291.7      1.144e+06  12.70      13.389     15.767     15.641     15.476     15.362     15.290     15.266     15.297     15.056     11.415    
31490.4    6.445e+12  15.8       291.7      1.144e+06  12.70      13.333     15.230     15.061     14.972     15.015     15.132     15.325     15.662     16.353     12.699    
31911.8    6.348e+12  15.8       286.4      1.160e+06  12.70      11.355     13.006     13.098     13.384     13.842     14.387     15.012     15.786     16.588     13.499    
31913.8    6.550e+12  15.8       291.7      1.146e+06  12.70      0.629      0.919      1.127      1.318      1.496      1.650      1.764      1.823      1.735      1.377     
32056.8    6.375e+12  15.8       291.7      1.146e+06  12.70      0.969      1.304      1.459      1.562      1.641      1.703      1.744      1.749      1.672      1.354     
35512.8    6.064e+12  15.8       291.7      1.146e+06  12.70      1.463      1.776      1.827      1.841      1.851      1.865      1.885      1.904      1.889      1.628     
37312.8    5.901e+12  15.8       291.7      1.146e+06  12.70      1.658      1.944      1.969      1.970      1.972      1.979      1.992      2.011      2.025      1.775     
39067.2    5.710e+12  15.8       291.7      1.146e+06  12.70      1.837      2.079      2.081      2.095      2.130      2.180      2.245      2.335      2.446      2.260     
40010.4    5.538e+12  15.8       281.2      1.175e+06  12.70      1.374      1.546      1.579      1.649      1.750      1.872      2.017      2.197      2.417      2.347     
