# ===============================================================================================================================================================================
# TIME     FASTF      PCOOL      TCOOL      GKL        PITCH      Q1         Q2         Q3         Q4         Q5         Q6         Q7         Q8         Q9         Q10       
# (h)      (n/cmWs)   (MPa)      (Celsius)  (kg/s)     (mm)       (kW/m)     (kW/m)     (kW/m)     (kW/m)     (kW/m)     (kW/m)     (kW/m)     (kW/m)     (kW/m)     (kW/m)    
# ===============================================================================================================================================================================
0          4.350e+12  15.8       291.7      1.148e+06  12.70      11.638     18.359     20.289     21.203     21.689     21.744     21.337     20.338     17.768     9.562     
144        4.364e+12  15.8       291.7      1.148e+06  12.70      14.337     21.115     22.112     21.848     21.470     20.936     20.245     19.272     17.076     9.528     
1440       4.389e+12  15.8       291.7      1.148e+06  12.70      15.369     21.451     21.739     21.356     20.960     20.562     20.131     19.543     17.845     10.407    
3045.6     4.400e+12  15.8       291.7      1.148e+06  12.70      16.111     21.254     21.009     20.527     20.186     19.964     19.881     19.976     19.646     12.617    
4900.8     4.211e+12  15.8       273.3      1.198e+06  12.70      10.259     13.263     13.588     14.067     14.775     15.626     16.640     17.920     19.222     13.448    
4904.6     4.219e+12  15.8       283.4      1.171e+06  12.70      4.792      6.441      6.945      7.604      8.457      9.460      10.621     11.981     13.305     9.447     
4906.6     5.174e+12  15.8       291.7      1.148e+06  12.70      16.830     24.696     26.485     26.845     26.258     25.205     23.742     21.861     18.903     10.858    
5049.6     5.189e+12  15.8       291.7      1.148e+06  12.70      19.171     26.539     27.298     26.487     25.405     24.116     22.699     21.082     18.551     10.976    
6465.6     5.202e+12  15.8       291.7      1.148e+06  12.70      18.957     24.917     25.073     24.568     23.968     23.333     22.673     21.924     20.409     12.820    
7291.2     5.202e+12  15.8       291.7      1.148e+06  12.70      19.265     24.701     24.506     23.944     23.397     22.888     22.429     22.007     21.067     13.775    
7928.6     5.088e+12  15.8       283.2      1.172e+06  12.70      16.626     21.214     21.557     21.764     22.070     22.412     22.778     23.160     22.993     15.587    
7930.6     5.103e+12  15.8       291.7      1.142e+06  12.70      12.505     18.807     22.194     24.935     27.120     28.636     29.386     28.763     26.188     16.134    
8073.6     5.094e+12  15.8       291.7      1.142e+06  12.70      16.471     22.937     24.893     25.878     26.380     26.777     26.287     25.460     23.271     14.650    
12969.6    5.253e+12  15.8       291.7      1.142e+06  12.70      19.538     25.090     25.618     25.076     24.552     24.034     23.512     22.831     21.210     14.027    
15621.6    5.318e+12  15.8       291.7      1.142e+06  12.70      19.329     23.329     23.033     22.705     22.625     22.735     23.012     23.408     23.239     16.362    
16407.8    5.180e+12  15.8       281.2      1.172e+06  12.70      15.853     19.055     19.241     19.668     20.407     21.350     22.486     23.828     24.975     18.251    
16409.8    5.800e+12  15.8       291.7      1.148e+06  12.70      8.425      11.728     13.938     16.459     19.175     21.902     24.463     26.656     28.140     22.541    
16552.8    5.800e+12  15.8       291.7      1.148e+06  12.70      12.426     16.023     17.327     18.588     19.856     21.091     22.268     23.332     23.970     19.283    
21808.8    5.952e+12  15.8       291.7      1.148e+06  12.70      17.294     20.474     20.372     20.154     19.944     19.761     19.623     19.527     19.195     15.596    
23690.4    5.973e+12  15.8       291.7      1.148e+06  12.70      17.076     19.473     19.205     19.041     19.029     19.116     19.314     19.688     20.307     16.945    
24426.2    5.805e+12  15.8       281.1      1.178e+06  12.70      13.928     15.835     15.945     16.365     17.011     17.788     18.705     19.857     21.160     18.667    
24428.2    6.515e+12  15.8       291.7      1.144e+06  12.70      7.423      11.216     13.675     15.928     18.019     19.819     21.139     21.799     20.464     13.591    
24571.2    6.486e+12  15.8       291.7      1.144e+06  12.70      10.635     14.788     16.401     17.423     18.188     18.758     19.108     19.071     17.905     12.047    
28027.2    6.460e+12  15.8       291.7      1.144e+06  12.70      13.470     16.560     16.883     16.700     16.632     16.611     16.646     16.690     16.257     11.873    
30187.2    6.444e+12  15.8       291.7      1.144e+06  12.70      13.906     16.375     16.245     16.073     15.955     15.880     15.855     15.887     15.637     11.855    
31490.4    6.419e+12  15.8       291.7      1.144e+06  12.70      13.823     15.790     15.615     15.523     15.567     15.688     15.889     16.238     16.954     13.166    
31911.8    6.323e+12  15.8       286.4      1.160e+06  12.70      11.735     13.441     13.536     13.832     14.305     14.868     15.514     16.314     17.142     13.951    
31913.8    6.638e+12  15.8       291.7      1.146e+06  12.70      2.035      2.972      3.646      4.264      4.839      5.339      5.708      5.898      5.613      4.456     
32056.8    6.538e+12  15.8       291.7      1.146e+06  12.70      3.013      4.053      4.534      4.854      5.101      5.294      5.421      5.435      5.197      4.208     
35512.8    6.336e+12  15.8       291.7      1.146e+06  12.70      4.203      5.100      5.247      5.286      5.316      5.358      5.414      5.469      5.426      4.675     
37312.8    6.245e+12  15.8       291.7      1.146e+06  12.70      4.575      5.364      5.433      5.436      5.441      5.460      5.496      5.548      5.586      4.897     
39067.2    6.136e+12  15.8       291.7      1.146e+06  12.70      4.821      5.457      5.463      5.498      5.590      5.722      5.894      6.130      6.420      5.931     
40010.4    5.976e+12  15.8       281.2      1.175e+06  12.70      3.645      4.103      4.191      4.376      4.644      4.969      5.353      5.831      6.413      6.228     
