# ===============================================================================================================================================================================
# TIME     FASTF      PCOOL      TCOOL      GKL        PITCH      Q1         Q2         Q3         Q4         Q5         Q6         Q7         Q8         Q9         Q10       
# (h)      (n/cmWs)   (MPa)      (Celsius)  (kg/s)     (mm)       (kW/m)     (kW/m)     (kW/m)     (kW/m)     (kW/m)     (kW/m)     (kW/m)     (kW/m)     (kW/m)     (kW/m)    
# ===============================================================================================================================================================================
0          4.575e+12  15.8       291.7      1.148e+06  12.70      16.148     25.473     28.151     29.419     30.094     30.170     29.606     28.219     24.653     13.267    
144        4.604e+12  15.8       291.7      1.148e+06  12.70      19.450     28.644     29.996     29.639     29.126     28.402     27.464     26.145     23.165     12.925    
1440       4.655e+12  15.8       291.7      1.148e+06  12.70      20.447     28.538     28.922     28.412     27.885     27.355     26.782     25.999     23.740     13.845    
3045.6     4.711e+12  15.8       291.7      1.148e+06  12.70      20.878     27.542     27.225     26.600     26.158     25.870     25.763     25.885     25.458     16.349    
4900.8     4.532e+12  15.8       273.3      1.198e+06  12.70      13.286     17.176     17.597     18.217     19.135     20.237     21.549     23.207     24.894     17.416    
4904.6     4.523e+12  15.8       283.4      1.171e+06  12.70      6.256      8.409      9.066      9.928      11.041     12.350     13.866     15.641     17.369     12.333    
4906.6     4.866e+12  15.8       291.7      1.148e+06  12.70      19.780     29.024     31.127     31.550     30.860     29.622     27.903     25.692     22.216     12.761    
5049.6     4.881e+12  15.8       291.7      1.148e+06  12.70      22.604     31.292     32.186     31.230     29.954     28.434     26.763     24.857     21.873     12.941    
6465.6     4.933e+12  15.8       291.7      1.148e+06  12.70      22.128     29.084     29.266     28.677     27.977     27.235     26.465     25.591     23.823     14.964    
7291.2     4.952e+12  15.8       291.7      1.148e+06  12.70      22.323     28.621     28.395     27.744     27.110     26.520     25.988     25.499     24.410     15.961    
7928.6     4.854e+12  15.8       283.2      1.172e+06  12.70      19.070     24.332     24.725     24.963     25.313     25.706     26.125     26.564     26.372     17.878    
7930.6     5.331e+12  15.8       291.7      1.142e+06  12.70      12.726     19.139     22.586     25.376     27.600     29.143     29.906     29.272     26.651     16.419    
8073.6     5.329e+12  15.8       291.7      1.142e+06  12.70      16.787     23.377     25.371     26.375     26.887     27.291     26.792     25.949     23.718     14.931    
12969.6    5.522e+12  15.8       291.7      1.142e+06  12.70      19.581     25.145     25.674     25.131     24.606     24.086     23.564     22.881     21.257     14.058    
15621.6    5.576e+12  15.8       291.7      1.142e+06  12.70      19.434     23.455     23.158     22.828     22.748     22.859     23.137     23.535     23.365     16.451    
16407.8    5.426e+12  15.8       281.2      1.172e+06  12.70      15.969     19.195     19.382     19.813     20.556     21.507     22.651     24.002     25.158     18.385    
16409.8    5.916e+12  15.8       291.7      1.148e+06  12.70      7.792      10.847     12.891     15.223     17.735     20.257     22.626     24.655     26.027     20.848    
16552.8    5.921e+12  15.8       291.7      1.148e+06  12.70      11.615     14.977     16.196     17.375     18.560     19.715     20.814     21.809     22.405     18.024    
21808.8    6.014e+12  15.8       291.7      1.148e+06  12.70      16.601     19.654     19.557     19.348     19.145     18.970     18.838     18.746     18.427     14.972    
23690.4    6.022e+12  15.8       291.7      1.148e+06  12.70      16.467     18.778     18.520     18.362     18.350     18.434     18.626     18.985     19.583     16.341    
24426.2    5.841e+12  15.8       281.1      1.178e+06  12.70      13.335     15.160     15.266     15.668     16.286     17.030     17.908     19.011     20.259     17.872    
24428.2    6.511e+12  15.8       291.7      1.144e+06  12.70      6.765      10.222     12.463     14.516     16.421     18.062     19.265     19.867     18.650     12.386    
24571.2    6.493e+12  15.8       291.7      1.144e+06  12.70      9.649      13.417     14.881     15.808     16.502     17.019     17.337     17.303     16.245     10.930    
28027.2    6.483e+12  15.8       291.7      1.144e+06  12.70      12.364     15.200     15.496     15.329     15.266     15.247     15.278     15.320     14.922     10.898    
30187.2    6.474e+12  15.8       291.7      1.144e+06  12.70      12.854     15.136     15.016     14.857     14.748     14.678     14.656     14.685     14.454     10.958    
31490.4    6.450e+12  15.8       291.7      1.144e+06  12.70      12.848     14.676     14.513     14.427     14.469     14.581     14.768     15.092     15.758     12.237    
31911.8    6.348e+12  15.8       286.4      1.160e+06  12.70      10.943     12.534     12.623     12.899     13.340     13.865     14.467     15.214     15.986     13.009    
31913.8    6.732e+12  15.8       291.7      1.146e+06  12.70      0.469      0.686      0.841      0.984      1.116      1.232      1.317      1.361      1.295      1.028     
32056.8    6.554e+12  15.8       291.7      1.146e+06  12.70      0.727      0.978      1.094      1.171      1.231      1.277      1.308      1.311      1.254      1.015     
35512.8    6.139e+12  15.8       291.7      1.146e+06  12.70      1.112      1.349      1.388      1.398      1.406      1.417      1.432      1.446      1.435      1.236     
37312.8    5.990e+12  15.8       291.7      1.146e+06  12.70      1.272      1.491      1.511      1.511      1.513      1.518      1.528      1.542      1.553      1.361     
39067.2    5.755e+12  15.8       291.7      1.146e+06  12.70      1.422      1.610      1.612      1.622      1.649      1.688      1.739      1.808      1.894      1.750     
40010.4    5.645e+12  15.8       281.2      1.175e+06  12.70      1.060      1.193      1.219      1.273      1.351      1.445      1.557      1.696      1.865      1.811     
