# ===============================================================================================================================================================================
# TIME     FASTF      PCOOL      TCOOL      GKL        PITCH      Q1         Q2         Q3         Q4         Q5         Q6         Q7         Q8         Q9         Q10       
# (h)      (n/cmWs)   (MPa)      (Celsius)  (kg/s)     (mm)       (kW/m)     (kW/m)     (kW/m)     (kW/m)     (kW/m)     (kW/m)     (kW/m)     (kW/m)     (kW/m)     (kW/m)    
# ===============================================================================================================================================================================
0          4.303e+12  15.8       291.7      1.148e+06  12.70      13.721     21.644     23.920     24.997     25.571     25.636     25.156     23.978     20.948     11.273    
144        4.312e+12  15.8       291.7      1.148e+06  12.70      16.826     24.780     25.950     25.641     25.197     24.570     23.759     22.618     20.040     11.181    
1440       4.323e+12  15.8       291.7      1.148e+06  12.70      18.023     25.155     25.493     25.044     24.580     24.113     23.607     22.917     20.926     12.204    
3045.6     4.333e+12  15.8       291.7      1.148e+06  12.70      18.807     24.810     24.525     23.962     23.564     23.305     23.208     23.318     22.933     14.728    
4900.8     4.152e+12  15.8       273.3      1.198e+06  12.70      11.977     15.484     15.863     16.422     17.249     18.243     19.426     20.920     22.441     15.700    
4904.6     4.163e+12  15.8       283.4      1.171e+06  12.70      5.599      7.526      8.114      8.884      9.881      11.053     12.409     13.998     15.544     11.037    
4906.6     5.724e+12  15.8       291.7      1.148e+06  12.70      16.508     24.222     25.977     26.330     25.754     24.721     23.286     21.441     18.540     10.649    
5049.6     5.743e+12  15.8       291.7      1.148e+06  12.70      18.729     25.927     26.667     25.875     24.818     23.559     22.175     20.595     18.122     10.722    
6465.6     5.707e+12  15.8       291.7      1.148e+06  12.70      18.626     24.481     24.634     24.138     23.549     22.925     22.276     21.541     20.052     12.595    
7291.2     5.677e+12  15.8       291.7      1.148e+06  12.70      18.986     24.342     24.150     23.596     23.057     22.555     22.103     21.687     20.761     13.575    
7928.6     5.535e+12  15.8       283.2      1.172e+06  12.70      16.449     20.988     21.327     21.533     21.835     22.174     22.535     22.914     22.748     15.421    
7930.6     4.967e+12  15.8       291.7      1.142e+06  12.70      12.773     19.210     22.670     25.470     27.702     29.251     30.017     29.380     26.750     16.480    
8073.6     4.950e+12  15.8       291.7      1.142e+06  12.70      16.905     23.542     25.549     26.560     27.076     27.483     26.980     26.132     23.885     15.036    
12969.6    5.098e+12  15.8       291.7      1.142e+06  12.70      19.876     25.525     26.062     25.511     24.977     24.450     23.920     23.227     21.578     14.270    
15621.6    5.164e+12  15.8       291.7      1.142e+06  12.70      19.667     23.736     23.435     23.101     23.020     23.132     23.414     23.817     23.645     16.648    
16407.8    5.037e+12  15.8       281.2      1.172e+06  12.70      16.089     19.339     19.528     19.961     20.711     21.669     22.821     24.183     25.348     18.523    
16409.8    5.803e+12  15.8       291.7      1.148e+06  12.70      8.361      11.638     13.831     16.333     19.029     21.735     24.276     26.453     27.926     22.369    
16552.8    5.805e+12  15.8       291.7      1.148e+06  12.70      12.370     15.950     17.249     18.503     19.765     20.996     22.167     23.226     23.861     19.195    
21808.8    5.932e+12  15.8       291.7      1.148e+06  12.70      17.231     20.399     20.298     20.081     19.871     19.689     19.552     19.456     19.125     15.539    
23690.4    5.940e+12  15.8       291.7      1.148e+06  12.70      17.046     19.439     19.171     19.008     18.996     19.083     19.281     19.653     20.272     16.916    
24426.2    5.767e+12  15.8       281.1      1.178e+06  12.70      13.881     15.781     15.891     16.309     16.953     17.727     18.641     19.789     21.088     18.604    
24428.2    6.488e+12  15.8       291.7      1.144e+06  12.70      7.397      11.177     13.627     15.872     17.955     19.749     21.065     21.722     20.392     13.543    
24571.2    6.469e+12  15.8       291.7      1.144e+06  12.70      10.571     14.699     16.303     17.319     18.079     18.646     18.994     18.956     17.798     11.975    
28027.2    6.425e+12  15.8       291.7      1.144e+06  12.70      13.478     16.570     16.893     16.710     16.642     16.621     16.655     16.700     16.266     11.880    
30187.2    6.387e+12  15.8       291.7      1.144e+06  12.70      13.985     16.469     16.338     16.165     16.046     15.971     15.946     15.978     15.727     11.923    
31490.4    6.353e+12  15.8       291.7      1.144e+06  12.70      13.939     15.922     15.746     15.652     15.697     15.819     16.022     16.374     17.096     13.276    
31911.8    6.251e+12  15.8       286.4      1.160e+06  12.70      11.857     13.581     13.677     13.977     14.455     15.023     15.676     16.485     17.322     14.097    
31913.8    6.446e+12  15.8       291.7      1.146e+06  12.70      1.357      1.982      2.431      2.843      3.226      3.560      3.806      3.933      3.742      2.971     
32056.8    6.345e+12  15.8       291.7      1.146e+06  12.70      2.029      2.730      3.054      3.270      3.435      3.565      3.651      3.661      3.501      2.834     
35512.8    6.147e+12  15.8       291.7      1.146e+06  12.70      2.902      3.521      3.623      3.649      3.670      3.699      3.738      3.776      3.746      3.227     
37312.8    6.059e+12  15.8       291.7      1.146e+06  12.70      3.201      3.753      3.801      3.803      3.807      3.820      3.845      3.881      3.908      3.426     
39067.2    5.946e+12  15.8       291.7      1.146e+06  12.70      3.412      3.863      3.867      3.892      3.957      4.050      4.172      4.339      4.544      4.199     
40010.4    5.806e+12  15.8       281.2      1.175e+06  12.70      2.569      2.892      2.954      3.084      3.273      3.502      3.772      4.109      4.520      4.389     
