# ===============================================================================================================================================================================
# TIME     FASTF      PCOOL      TCOOL      GKL        PITCH      Q1         Q2         Q3         Q4         Q5         Q6         Q7         Q8         Q9         Q10       
# (h)      (n/cmWs)   (MPa)      (Celsius)  (kg/s)     (mm)       (kW/m)     (kW/m)     (kW/m)     (kW/m)     (kW/m)     (kW/m)     (kW/m)     (kW/m)     (kW/m)     (kW/m)    
# ===============================================================================================================================================================================
0          4.982e+12  15.8       291.7      1.148e+06  12.70      14.482     22.846     25.247     26.385     26.990     27.058     26.552     25.308     22.110     11.899    
144        5.007e+12  15.8       291.7      1.148e+06  12.70      17.453     25.703     26.917     26.596     26.136     25.486     24.644     23.460     20.787     11.598    
1440       4.984e+12  15.8       291.7      1.148e+06  12.70      18.653     26.033     26.383     25.918     25.438     24.955     24.432     23.718     21.657     12.630    
3045.6     4.977e+12  15.8       291.7      1.148e+06  12.70      19.320     25.487     25.194     24.616     24.207     23.940     23.842     23.954     23.559     15.130    
4900.8     4.719e+12  15.8       273.3      1.198e+06  12.70      12.497     16.156     16.552     17.135     17.998     19.035     20.270     21.829     23.415     16.382    
4904.6     4.727e+12  15.8       283.4      1.171e+06  12.70      5.883      7.907      8.525      9.335      10.382     11.613     13.038     14.708     16.332     11.597    
4906.6     4.576e+12  15.8       291.7      1.148e+06  12.70      20.380     29.904     32.070     32.506     31.796     30.520     28.748     26.471     22.889     13.147    
5049.6     4.582e+12  15.8       291.7      1.148e+06  12.70      23.306     32.262     33.184     32.198     30.883     29.316     27.594     25.628     22.551     13.342    
6465.6     4.612e+12  15.8       291.7      1.148e+06  12.70      22.914     30.117     30.306     29.696     28.971     28.203     27.405     26.500     24.669     15.495    
7291.2     4.623e+12  15.8       291.7      1.148e+06  12.70      23.163     29.698     29.464     28.788     28.131     27.518     26.966     26.459     25.329     16.562    
7928.6     4.531e+12  15.8       283.2      1.172e+06  12.70      19.796     25.258     25.666     25.914     26.277     26.685     27.120     27.576     27.376     18.559    
7930.6     4.988e+12  15.8       291.7      1.142e+06  12.70      13.731     20.650     24.370     27.379     29.779     31.443     32.267     31.583     28.756     17.716    
8073.6     5.003e+12  15.8       291.7      1.142e+06  12.70      18.053     25.141     27.284     28.364     28.915     29.350     28.813     27.907     25.507     16.057    
12969.6    5.347e+12  15.8       291.7      1.142e+06  12.70      20.484     26.305     26.859     26.291     25.741     25.198     24.652     23.937     22.238     14.707    
15621.6    5.436e+12  15.8       291.7      1.142e+06  12.70      20.194     24.372     24.064     23.721     23.638     23.753     24.042     24.455     24.279     17.094    
16407.8    5.296e+12  15.8       281.2      1.172e+06  12.70      16.579     19.929     20.123     20.569     21.342     22.329     23.517     24.919     26.120     19.087    
16409.8    5.778e+12  15.8       291.7      1.148e+06  12.70      8.015      11.158     13.260     15.659     18.243     20.837     23.273     25.361     26.772     21.445    
16552.8    5.788e+12  15.8       291.7      1.148e+06  12.70      11.937     15.392     16.646     17.857     19.074     20.262     21.392     22.414     23.027     18.524    
21808.8    5.889e+12  15.8       291.7      1.148e+06  12.70      16.925     20.038     19.938     19.725     19.519     19.340     19.205     19.111     18.786     15.264    
23690.4    5.890e+12  15.8       291.7      1.148e+06  12.70      16.791     19.148     18.884     18.723     18.711     18.797     18.992     19.359     19.968     16.662    
24426.2    5.719e+12  15.8       281.1      1.178e+06  12.70      13.606     15.469     15.576     15.986     16.617     17.376     18.272     19.397     20.671     18.235    
24428.2    6.289e+12  15.8       291.7      1.144e+06  12.70      7.463      11.277     13.749     16.014     18.116     19.926     21.253     21.917     20.575     13.664    
24571.2    6.290e+12  15.8       291.7      1.144e+06  12.70      10.582     14.714     16.319     17.336     18.097     18.664     19.013     18.975     17.815     11.987    
28027.2    6.421e+12  15.8       291.7      1.144e+06  12.70      13.204     16.233     16.549     16.370     16.303     16.283     16.316     16.360     15.935     11.638    
30187.2    6.438e+12  15.8       291.7      1.144e+06  12.70      13.633     16.055     15.927     15.758     15.642     15.569     15.545     15.576     15.331     11.623    
31490.4    6.417e+12  15.8       291.7      1.144e+06  12.70      13.590     15.523     15.351     15.260     15.304     15.423     15.621     15.964     16.668     12.944    
31911.8    6.322e+12  15.8       286.4      1.160e+06  12.70      11.583     13.267     13.360     13.653     14.119     14.675     15.313     16.103     16.920     13.770    
31913.8    6.503e+12  15.8       291.7      1.146e+06  12.70      0.486      0.709      0.870      1.018      1.155      1.274      1.362      1.408      1.340      1.063     
32056.8    6.109e+12  15.8       291.7      1.146e+06  12.70      0.770      1.035      1.158      1.240      1.303      1.352      1.385      1.388      1.327      1.075     
35512.8    5.478e+12  15.8       291.7      1.146e+06  12.70      1.231      1.493      1.536      1.547      1.556      1.568      1.585      1.601      1.588      1.369     
37312.8    5.131e+12  15.8       291.7      1.146e+06  12.70      1.451      1.702      1.724      1.724      1.726      1.732      1.744      1.760      1.772      1.553     
39067.2    4.757e+12  15.8       291.7      1.146e+06  12.70      1.684      1.907      1.909      1.921      1.953      1.999      2.059      2.141      2.243      2.072     
40010.4    4.621e+12  15.8       281.2      1.175e+06  12.70      1.247      1.404      1.434      1.497      1.588      1.700      1.831      1.994      2.194      2.130     
