# ===============================================================================================================================================================================
# TIME     FASTF      PCOOL      TCOOL      GKL        PITCH      Q1         Q2         Q3         Q4         Q5         Q6         Q7         Q8         Q9         Q10       
# (h)      (n/cmWs)   (MPa)      (Celsius)  (kg/s)     (mm)       (kW/m)     (kW/m)     (kW/m)     (kW/m)     (kW/m)     (kW/m)     (kW/m)     (kW/m)     (kW/m)     (kW/m)    
# ===============================================================================================================================================================================
0          4.446e+12  15.8       291.7      1.148e+06  12.70      10.299     16.247     17.955     18.764     19.194     19.243     18.883     17.998     15.724     8.462     
144        4.450e+12  15.8       291.7      1.148e+06  12.70      12.783     18.825     19.714     19.479     19.142     18.666     18.050     17.183     15.224     8.494     
1440       4.451e+12  15.8       291.7      1.148e+06  12.70      13.795     19.254     19.512     19.169     18.813     18.456     18.069     17.541     16.017     9.341     
3045.6     4.437e+12  15.8       291.7      1.148e+06  12.70      14.581     19.235     19.013     18.577     18.268     18.067     17.992     18.078     17.779     11.418    
4900.8     4.236e+12  15.8       273.3      1.198e+06  12.70      9.214      11.912     12.204     12.634     13.270     14.035     14.945     16.095     17.265     12.079    
4904.6     4.246e+12  15.8       283.4      1.171e+06  12.70      4.302      5.782      6.234      6.827      7.592      8.493      9.535      10.756     11.944     8.481     
4906.6     4.748e+12  15.8       291.7      1.148e+06  12.70      17.599     25.824     27.694     28.071     27.457     26.356     24.826     22.859     19.766     11.354    
5049.6     4.755e+12  15.8       291.7      1.148e+06  12.70      20.357     28.180     28.986     28.124     26.976     25.607     24.102     22.386     19.698     11.654    
6465.6     4.790e+12  15.8       291.7      1.148e+06  12.70      20.223     26.580     26.747     26.209     25.568     24.891     24.187     23.388     21.772     13.676    
7291.2     4.796e+12  15.8       291.7      1.148e+06  12.70      20.546     26.343     26.135     25.536     24.952     24.409     23.920     23.470     22.467     14.690    
7928.6     4.700e+12  15.8       283.2      1.172e+06  12.70      17.508     22.340     22.701     22.919     23.241     23.602     23.986     24.389     24.213     16.414    
7930.6     5.573e+12  15.8       291.7      1.142e+06  12.70      11.306     17.004     20.066     22.544     24.520     25.891     26.569     26.006     23.678     14.587    
8073.6     5.564e+12  15.8       291.7      1.142e+06  12.70      14.900     20.750     22.519     23.410     23.865     24.224     23.780     23.032     21.052     13.253    
12969.6    5.626e+12  15.8       291.7      1.142e+06  12.70      18.271     23.464     23.958     23.451     22.961     22.476     21.989     21.351     19.836     13.118    
15621.6    5.645e+12  15.8       291.7      1.142e+06  12.70      18.335     22.128     21.848     21.537     21.461     21.565     21.828     22.203     22.043     15.520    
16407.8    5.492e+12  15.8       281.2      1.172e+06  12.70      15.096     18.146     18.324     18.730     19.433     20.332     21.414     22.691     23.784     17.381    
16409.8    5.768e+12  15.8       291.7      1.148e+06  12.70      8.411      11.709     13.915     16.432     19.144     21.866     24.423     26.613     28.095     22.504    
16552.8    5.774e+12  15.8       291.7      1.148e+06  12.70      12.470     16.079     17.388     18.653     19.925     21.165     22.346     23.414     24.054     19.351    
21808.8    5.989e+12  15.8       291.7      1.148e+06  12.70      17.671     20.921     20.817     20.595     20.379     20.193     20.052     19.954     19.614     15.937    
23690.4    6.016e+12  15.8       291.7      1.148e+06  12.70      17.483     19.938     19.663     19.496     19.483     19.572     19.776     20.157     20.792     17.350    
24426.2    5.848e+12  15.8       281.1      1.178e+06  12.70      14.183     16.124     16.237     16.664     17.321     18.113     19.047     20.220     21.547     19.009    
24428.2    6.478e+12  15.8       291.7      1.144e+06  12.70      7.571      11.440     13.947     16.245     18.377     20.214     21.560     22.233     20.872     13.862    
24571.2    6.465e+12  15.8       291.7      1.144e+06  12.70      10.760     14.962     16.595     17.629     18.402     18.979     19.333     19.295     18.116     12.189    
28027.2    6.512e+12  15.8       291.7      1.144e+06  12.70      13.509     16.607     16.931     16.748     16.679     16.658     16.693     16.738     16.303     11.907    
30187.2    6.519e+12  15.8       291.7      1.144e+06  12.70      13.926     16.399     16.268     16.096     15.978     15.903     15.878     15.910     15.660     11.873    
31490.4    6.509e+12  15.8       291.7      1.144e+06  12.70      13.827     15.795     15.620     15.527     15.572     15.693     15.894     16.243     16.959     13.170    
31911.8    6.409e+12  15.8       286.4      1.160e+06  12.70      11.769     13.480     13.575     13.872     14.347     14.911     15.559     16.361     17.192     13.991    
31913.8    6.537e+12  15.8       291.7      1.146e+06  12.70      0.988      1.443      1.770      2.070      2.349      2.591      2.770      2.863      2.724      2.163     
32056.8    6.410e+12  15.8       291.7      1.146e+06  12.70      1.506      2.026      2.267      2.427      2.550      2.647      2.711      2.718      2.599      2.104     
35512.8    6.093e+12  15.8       291.7      1.146e+06  12.70      2.226      2.701      2.779      2.799      2.815      2.837      2.867      2.896      2.873      2.475     
37312.8    5.974e+12  15.8       291.7      1.146e+06  12.70      2.492      2.922      2.960      2.961      2.964      2.975      2.994      3.022      3.043      2.668     
39067.2    5.792e+12  15.8       291.7      1.146e+06  12.70      2.723      3.082      3.086      3.106      3.157      3.232      3.329      3.462      3.626      3.350     
40010.4    5.666e+12  15.8       281.2      1.175e+06  12.70      2.047      2.304      2.353      2.457      2.607      2.789      3.005      3.273      3.601      3.496     
