# ===============================================================================================================================================================================
# TIME     FASTF      PCOOL      TCOOL      GKL        PITCH      Q1         Q2         Q3         Q4         Q5         Q6         Q7         Q8         Q9         Q10       
# (h)      (n/cmWs)   (MPa)      (Celsius)  (kg/s)     (mm)       (kW/m)     (kW/m)     (kW/m)     (kW/m)     (kW/m)     (kW/m)     (kW/m)     (kW/m)     (kW/m)     (kW/m)    
# ===============================================================================================================================================================================
0          4.472e+12  15.8       291.7      1.148e+06  12.70      14.299     22.556     24.927     26.050     26.648     26.715     26.216     24.988     21.830     11.748    
144        4.487e+12  15.8       291.7      1.148e+06  12.70      17.423     25.659     26.870     26.550     26.091     25.442     24.602     23.420     20.751     11.578    
1440       4.524e+12  15.8       291.7      1.148e+06  12.70      18.508     25.831     26.178     25.717     25.240     24.761     24.242     23.533     21.489     12.532    
3045.6     4.559e+12  15.8       291.7      1.148e+06  12.70      19.140     25.249     24.959     24.386     23.981     23.717     23.619     23.731     23.339     14.988    
4900.8     4.378e+12  15.8       273.3      1.198e+06  12.70      12.185     15.752     16.138     16.707     17.548     18.559     19.763     21.283     22.830     15.972    
4904.6     4.383e+12  15.8       283.4      1.171e+06  12.70      5.714      7.679      8.280      9.066      10.083     11.279     12.663     14.284     15.862     11.263    
4906.6     5.349e+12  15.8       291.7      1.148e+06  12.70      17.878     26.234     28.134     28.516     27.893     26.774     25.220     23.222     20.080     11.534    
5049.6     5.364e+12  15.8       291.7      1.148e+06  12.70      20.312     28.118     28.921     28.062     26.916     25.550     24.049     22.336     19.654     11.628    
6465.6     5.372e+12  15.8       291.7      1.148e+06  12.70      20.044     26.345     26.510     25.976     25.342     24.670     23.972     23.181     21.579     13.555    
7291.2     5.371e+12  15.8       291.7      1.148e+06  12.70      20.335     26.072     25.866     25.273     24.696     24.158     23.674     23.229     22.236     14.539    
7928.6     5.251e+12  15.8       283.2      1.172e+06  12.70      17.534     22.373     22.734     22.953     23.275     23.637     24.022     24.425     24.249     16.439    
7930.6     5.243e+12  15.8       291.7      1.142e+06  12.70      12.416     18.674     22.037     24.758     26.929     28.434     29.179     28.560     26.003     16.020    
8073.6     5.238e+12  15.8       291.7      1.142e+06  12.70      16.414     22.857     24.806     25.788     26.289     26.684     26.196     25.372     23.190     14.599    
12969.6    5.388e+12  15.8       291.7      1.142e+06  12.70      19.275     24.752     25.274     24.739     24.222     23.711     23.196     22.524     20.925     13.839    
15621.6    5.437e+12  15.8       291.7      1.142e+06  12.70      19.135     23.094     22.802     22.477     22.398     22.507     22.781     23.173     23.006     16.198    
16407.8    5.294e+12  15.8       281.2      1.172e+06  12.70      15.690     18.860     19.044     19.467     20.198     21.132     22.256     23.584     24.720     18.064    
16409.8    5.936e+12  15.8       291.7      1.148e+06  12.70      8.061      11.222     13.336     15.748     18.347     20.957     23.407     25.506     26.926     21.568    
16552.8    5.937e+12  15.8       291.7      1.148e+06  12.70      11.953     15.412     16.667     17.879     19.099     20.287     21.419     22.442     23.056     18.548    
21808.8    6.044e+12  15.8       291.7      1.148e+06  12.70      16.761     19.843     19.745     19.534     19.330     19.153     19.019     18.926     18.604     15.116    
23690.4    6.047e+12  15.8       291.7      1.148e+06  12.70      16.594     18.923     18.662     18.504     18.492     18.577     18.769     19.132     19.734     16.467    
24426.2    5.874e+12  15.8       281.1      1.178e+06  12.70      13.493     15.340     15.447     15.854     16.479     17.232     18.120     19.236     20.499     18.084    
24428.2    6.579e+12  15.8       291.7      1.144e+06  12.70      7.204      10.886     13.272     15.458     17.487     19.235     20.516     21.156     19.861     13.190    
24571.2    6.557e+12  15.8       291.7      1.144e+06  12.70      10.290     14.308     15.870     16.859     17.598     18.150     18.489     18.452     17.325     11.657    
28027.2    6.525e+12  15.8       291.7      1.144e+06  12.70      13.127     16.138     16.452     16.274     16.208     16.187     16.221     16.265     15.842     11.571    
30187.2    6.504e+12  15.8       291.7      1.144e+06  12.70      13.607     16.024     15.896     15.728     15.612     15.539     15.515     15.546     15.302     11.601    
31490.4    6.479e+12  15.8       291.7      1.144e+06  12.70      13.556     15.485     15.313     15.223     15.266     15.385     15.582     15.924     16.626     12.912    
31911.8    6.379e+12  15.8       286.4      1.160e+06  12.70      11.530     13.207     13.300     13.591     14.056     14.609     15.244     16.030     16.844     13.708    
31913.8    6.682e+12  15.8       291.7      1.146e+06  12.70      1.028      1.501      1.841      2.154      2.444      2.696      2.883      2.979      2.835      2.250     
32056.8    6.567e+12  15.8       291.7      1.146e+06  12.70      1.549      2.083      2.331      2.496      2.622      2.721      2.787      2.794      2.672      2.163     
35512.8    6.348e+12  15.8       291.7      1.146e+06  12.70      2.253      2.734      2.813      2.833      2.850      2.872      2.902      2.932      2.908      2.506     
37312.8    6.213e+12  15.8       291.7      1.146e+06  12.70      2.508      2.941      2.979      2.980      2.983      2.993      3.013      3.041      3.062      2.684     
39067.2    6.088e+12  15.8       291.7      1.146e+06  12.70      2.702      3.059      3.062      3.082      3.133      3.207      3.304      3.436      3.598      3.325     
40010.4    5.932e+12  15.8       281.2      1.175e+06  12.70      2.029      2.284      2.333      2.436      2.585      2.766      2.980      3.246      3.570      3.467     
