# ===============================================================================================================================================================================
# TIME     FASTF      PCOOL      TCOOL      GKL        PITCH      Q1         Q2         Q3         Q4         Q5         Q6         Q7         Q8         Q9         Q10       
# (h)      (n/cmWs)   (MPa)      (Celsius)  (kg/s)     (mm)       (kW/m)     (kW/m)     (kW/m)     (kW/m)     (kW/m)     (kW/m)     (kW/m)     (kW/m)     (kW/m)     (kW/m)    
# ===============================================================================================================================================================================
0          4.212e+12  15.8       291.7      1.148e+06  12.70      13.503     21.301     23.540     24.601     25.165     25.229     24.757     23.597     20.615     11.094    
144        4.235e+12  15.8       291.7      1.148e+06  12.70      16.518     24.326     25.475     25.171     24.736     24.121     23.324     22.204     19.673     10.977    
1440       4.291e+12  15.8       291.7      1.148e+06  12.70      17.473     24.387     24.715     24.279     23.829     23.376     22.886     22.217     20.287     11.832    
3045.6     4.332e+12  15.8       291.7      1.148e+06  12.70      18.068     23.835     23.561     23.020     22.638     22.389     22.296     22.402     22.032     14.149    
4900.8     4.160e+12  15.8       273.3      1.198e+06  12.70      11.419     14.763     15.124     15.657     16.446     17.393     18.521     19.946     21.396     14.969    
4904.6     4.154e+12  15.8       283.4      1.171e+06  12.70      5.350      7.190      7.753      8.489      9.441      10.561     11.857     13.375     14.852     10.546    
4906.6     4.622e+12  15.8       291.7      1.148e+06  12.70      19.271     28.278     30.326     30.738     30.066     28.860     27.185     25.031     21.644     12.432    
5049.6     4.637e+12  15.8       291.7      1.148e+06  12.70      22.165     30.684     31.561     30.623     29.372     27.882     26.244     24.374     21.448     12.690    
6465.6     4.685e+12  15.8       291.7      1.148e+06  12.70      21.810     28.666     28.846     28.266     27.575     26.844     26.085     25.223     23.481     14.749    
7291.2     4.705e+12  15.8       291.7      1.148e+06  12.70      22.059     28.283     28.060     27.417     26.790     26.207     25.682     25.199     24.122     15.773    
7928.6     4.611e+12  15.8       283.2      1.172e+06  12.70      18.830     24.026     24.414     24.649     24.995     25.383     25.797     26.230     26.041     17.653    
7930.6     5.115e+12  15.8       291.7      1.142e+06  12.70      12.529     18.843     22.237     24.983     27.173     28.692     29.443     28.819     26.239     16.165    
8073.6     5.112e+12  15.8       291.7      1.142e+06  12.70      16.512     22.994     24.955     25.942     26.446     26.844     26.352     25.524     23.329     14.686    
12969.6    5.278e+12  15.8       291.7      1.142e+06  12.70      19.511     25.056     25.584     25.042     24.519     24.001     23.481     22.800     21.182     14.008    
15621.6    5.347e+12  15.8       291.7      1.142e+06  12.70      19.325     23.323     23.028     22.700     22.620     22.730     23.007     23.402     23.234     16.358    
16407.8    5.210e+12  15.8       281.2      1.172e+06  12.70      15.867     19.072     19.258     19.686     20.425     21.369     22.506     23.849     24.997     18.267    
16409.8    5.650e+12  15.8       291.7      1.148e+06  12.70      8.407      11.704     13.909     16.425     19.135     21.857     24.412     26.601     28.082     22.494    
16552.8    5.655e+12  15.8       291.7      1.148e+06  12.70      12.481     16.093     17.404     18.670     19.943     21.185     22.366     23.435     24.076     19.368    
21808.8    5.796e+12  15.8       291.7      1.148e+06  12.70      17.807     21.081     20.977     20.753     20.535     20.347     20.205     20.107     19.765     16.059    
23690.4    5.823e+12  15.8       291.7      1.148e+06  12.70      17.609     20.081     19.804     19.635     19.623     19.713     19.917     20.302     20.941     17.474    
24426.2    5.664e+12  15.8       281.1      1.178e+06  12.70      14.276     16.230     16.343     16.774     17.435     18.232     19.172     20.352     21.689     19.134    
24428.2    6.328e+12  15.8       291.7      1.144e+06  12.70      7.199      10.878     13.263     15.447     17.475     19.221     20.502     21.142     19.847     13.181    
24571.2    6.299e+12  15.8       291.7      1.144e+06  12.70      10.287     14.305     15.866     16.854     17.594     18.145     18.484     18.448     17.320     11.654    
28027.2    6.279e+12  15.8       291.7      1.144e+06  12.70      13.121     16.130     16.445     16.267     16.200     16.180     16.214     16.257     15.835     11.565    
30187.2    6.263e+12  15.8       291.7      1.144e+06  12.70      13.606     16.022     15.895     15.727     15.611     15.538     15.513     15.545     15.300     11.600    
31490.4    6.250e+12  15.8       291.7      1.144e+06  12.70      13.563     15.493     15.321     15.230     15.274     15.393     15.590     15.932     16.634     12.918    
31911.8    6.151e+12  15.8       286.4      1.160e+06  12.70      11.532     13.209     13.302     13.593     14.058     14.611     15.246     16.032     16.846     13.710    
31913.8    6.534e+12  15.8       291.7      1.146e+06  12.70      0.967      1.412      1.732      2.026      2.299      2.537      2.712      2.802      2.667      2.117     
32056.8    6.442e+12  15.8       291.7      1.146e+06  12.70      1.469      1.976      2.211      2.367      2.487      2.581      2.644      2.650      2.534      2.052     
35512.8    6.178e+12  15.8       291.7      1.146e+06  12.70      2.155      2.615      2.690      2.710      2.726      2.747      2.776      2.804      2.782      2.397     
37312.8    6.094e+12  15.8       291.7      1.146e+06  12.70      2.401      2.815      2.852      2.853      2.856      2.865      2.884      2.911      2.932      2.570     
39067.2    5.988e+12  15.8       291.7      1.146e+06  12.70      2.606      2.950      2.953      2.972      3.021      3.093      3.186      3.313      3.470      3.206     
40010.4    5.800e+12  15.8       281.2      1.175e+06  12.70      1.961      2.207      2.254      2.354      2.498      2.672      2.879      3.136      3.449      3.350     
