# ===============================================================================================================================================================================
# TIME     FASTF      PCOOL      TCOOL      GKL        PITCH      Q1         Q2         Q3         Q4         Q5         Q6         Q7         Q8         Q9         Q10       
# (h)      (n/cmWs)   (MPa)      (Celsius)  (kg/s)     (mm)       (kW/m)     (kW/m)     (kW/m)     (kW/m)     (kW/m)     (kW/m)     (kW/m)     (kW/m)     (kW/m)     (kW/m)    
# ===============================================================================================================================================================================
0          4.154e+12  15.8       291.7      1.148e+06  12.70      17.679     27.888     30.820     32.208     32.947     33.030     32.413     30.894     26.990     14.525    
144        4.182e+12  15.8       291.7      1.148e+06  12.70      21.303     31.373     32.854     32.463     31.901     31.108     30.081     28.636     25.372     14.156    
1440       4.252e+12  15.8       291.7      1.148e+06  12.70      22.268     31.079     31.497     30.942     30.368     29.791     29.167     28.314     25.854     15.078    
3045.6     4.326e+12  15.8       291.7      1.148e+06  12.70      22.619     29.838     29.495     28.818     28.339     28.027     27.911     28.044     27.581     17.712    
4900.8     4.184e+12  15.8       273.3      1.198e+06  12.70      14.294     18.479     18.931     19.599     20.586     21.772     23.184     24.967     26.782     18.737    
4904.6     4.180e+12  15.8       283.4      1.171e+06  12.70      6.730      9.046      9.753      10.679     11.877     13.286     14.916     16.826     18.685     13.267    
4906.6     4.570e+12  15.8       291.7      1.148e+06  12.70      21.045     30.880     33.117     33.567     32.833     31.516     29.687     27.335     23.636     13.576    
5049.6     4.586e+12  15.8       291.7      1.148e+06  12.70      24.059     33.305     34.257     33.239     31.882     30.264     28.485     26.457     23.280     13.774    
6465.6     4.652e+12  15.8       291.7      1.148e+06  12.70      23.464     30.840     31.034     30.409     29.666     28.880     28.063     27.136     25.261     15.867    
7291.2     4.681e+12  15.8       291.7      1.148e+06  12.70      23.615     30.278     30.039     29.351     28.680     28.055     27.493     26.976     25.824     16.885    
7928.6     4.593e+12  15.8       283.2      1.172e+06  12.70      20.132     25.687     26.102     26.354     26.723     27.138     27.580     28.044     27.841     18.874    
7930.6     5.048e+12  15.8       291.7      1.142e+06  12.70      13.205     19.859     23.436     26.330     28.638     30.239     31.031     30.372     27.654     17.037    
8073.6     5.046e+12  15.8       291.7      1.142e+06  12.70      17.432     24.275     26.346     27.388     27.920     28.340     27.821     26.946     24.629     15.505    
12969.6    5.258e+12  15.8       291.7      1.142e+06  12.70      20.185     25.921     26.467     25.906     25.365     24.830     24.291     23.587     21.913     14.492    
15621.6    5.324e+12  15.8       291.7      1.142e+06  12.70      19.988     24.124     23.819     23.479     23.397     23.511     23.797     24.206     24.032     16.920    
16407.8    5.181e+12  15.8       281.2      1.172e+06  12.70      16.408     19.723     19.915     20.357     21.122     22.098     23.274     24.662     25.850     18.891    
16409.8    5.653e+12  15.8       291.7      1.148e+06  12.70      8.154      11.351     13.490     15.930     18.559     21.198     23.677     25.800     27.237     21.817    
16552.8    5.660e+12  15.8       291.7      1.148e+06  12.70      12.150     15.667     16.942     18.175     19.415     20.623     21.773     22.814     23.438     18.855    
21808.8    5.789e+12  15.8       291.7      1.148e+06  12.70      17.327     20.513     20.411     20.193     19.982     19.799     19.661     19.565     19.232     15.626    
23690.4    5.811e+12  15.8       291.7      1.148e+06  12.70      17.142     19.549     19.279     19.115     19.103     19.191     19.390     19.764     20.387     17.011    
24426.2    5.646e+12  15.8       281.1      1.178e+06  12.70      13.867     15.765     15.875     16.293     16.935     17.709     18.622     19.769     21.067     18.585    
24428.2    6.305e+12  15.8       291.7      1.144e+06  12.70      6.783      10.248     12.495     14.553     16.464     18.109     19.315     19.918     18.698     12.418    
24571.2    6.287e+12  15.8       291.7      1.144e+06  12.70      9.684      13.466     14.936     15.866     16.562     17.082     17.400     17.366     16.305     10.970    
28027.2    6.253e+12  15.8       291.7      1.144e+06  12.70      12.477     15.339     15.637     15.468     15.405     15.386     15.418     15.459     15.058     10.998    
30187.2    6.237e+12  15.8       291.7      1.144e+06  12.70      13.005     15.314     15.192     15.032     14.921     14.851     14.828     14.858     14.624     11.087    
31490.4    6.212e+12  15.8       291.7      1.144e+06  12.70      13.018     14.870     14.705     14.618     14.660     14.774     14.963     15.292     15.966     12.399    
31911.8    6.117e+12  15.8       286.4      1.160e+06  12.70      11.089     12.702     12.791     13.071     13.518     14.050     14.661     15.417     16.200     13.183    
31913.8    6.491e+12  15.8       291.7      1.146e+06  12.70      0.451      0.659      0.808      0.946      1.073      1.184      1.266      1.308      1.245      0.988     
32056.8    6.359e+12  15.8       291.7      1.146e+06  12.70      0.698      0.939      1.051      1.125      1.182      1.227      1.256      1.260      1.204      0.975     
35512.8    6.028e+12  15.8       291.7      1.146e+06  12.70      1.064      1.291      1.328      1.338      1.345      1.356      1.370      1.384      1.373      1.183     
37312.8    5.929e+12  15.8       291.7      1.146e+06  12.70      1.212      1.421      1.439      1.440      1.442      1.446      1.456      1.470      1.480      1.297     
39067.2    5.752e+12  15.8       291.7      1.146e+06  12.70      1.348      1.526      1.528      1.538      1.564      1.600      1.649      1.715      1.796      1.659     
40010.4    5.580e+12  15.8       281.2      1.175e+06  12.70      1.006      1.132      1.157      1.208      1.281      1.371      1.477      1.609      1.770      1.718     
