# ===============================================================================================================================================================================
# TIME     FASTF      PCOOL      TCOOL      GKL        PITCH      Q1         Q2         Q3         Q4         Q5         Q6         Q7         Q8         Q9         Q10       
# (h)      (n/cmWs)   (MPa)      (Celsius)  (kg/s)     (mm)       (kW/m)     (kW/m)     (kW/m)     (kW/m)     (kW/m)     (kW/m)     (kW/m)     (kW/m)     (kW/m)     (kW/m)    
# ===============================================================================================================================================================================
0          4.460e+12  15.8       291.7      1.148e+06  12.70      14.025     22.128     24.460     25.567     26.160     26.232     25.745     24.541     21.441     11.539    
144        4.478e+12  15.8       291.7      1.148e+06  12.70      17.118     25.215     26.411     26.101     25.655     25.021     24.197     23.036     20.411     11.388    
1440       4.516e+12  15.8       291.7      1.148e+06  12.70      18.130     25.309     25.654     25.205     24.742     24.275     23.768     23.074     21.070     12.288    
3045.6     4.549e+12  15.8       291.7      1.148e+06  12.70      18.725     24.707     24.427     23.869     23.475     23.218     23.123     23.233     22.849     14.674    
4900.8     4.361e+12  15.8       273.3      1.198e+06  12.70      11.828     15.295     15.671     16.224     17.042     18.025     19.194     20.671     22.173     15.513    
4904.6     4.364e+12  15.8       283.4      1.171e+06  12.70      5.550      7.462      8.046      8.810      9.799      10.961     12.306     13.882     15.415     10.945    
4906.6     4.885e+12  15.8       291.7      1.148e+06  12.70      18.773     27.553     29.556     29.962     29.309     28.133     26.498     24.394     21.087     12.110    
5049.6     4.892e+12  15.8       291.7      1.148e+06  12.70      21.587     29.892     30.753     29.844     28.627     27.174     25.576     23.750     20.893     12.360    
6465.6     4.926e+12  15.8       291.7      1.148e+06  12.70      21.316     28.024     28.206     27.642     26.970     26.255     25.512     24.667     22.958     14.419    
7291.2     4.935e+12  15.8       291.7      1.148e+06  12.70      21.578     27.673     27.461     26.835     26.224     25.654     25.140     24.665     23.608     15.434    
7928.6     4.835e+12  15.8       283.2      1.172e+06  12.70      18.407     23.493     23.878     24.111     24.451     24.832     25.237     25.660     25.471     17.265    
7930.6     5.780e+12  15.8       291.7      1.142e+06  12.70      11.387     17.131     20.205     22.679     24.641     25.989     26.641     26.041     23.675     14.553    
8073.6     5.772e+12  15.8       291.7      1.142e+06  12.70      14.911     20.772     22.531     23.403     23.836     24.175     23.706     22.936     20.937     13.153    
12969.6    5.835e+12  15.8       291.7      1.142e+06  12.70      18.058     23.192     23.672     23.163     22.672     22.188     21.701     21.066     19.563     12.925    
15621.6    5.852e+12  15.8       291.7      1.142e+06  12.70      17.983     21.687     21.408     21.104     21.032     21.136     21.397     21.769     21.618     15.218    
16407.8    5.690e+12  15.8       281.2      1.172e+06  12.70      14.836     17.820     17.991     18.392     19.085     19.970     21.036     22.295     23.374     17.082    
16409.8    5.817e+12  15.8       291.7      1.148e+06  12.70      8.054      11.196     13.306     15.719     18.320     20.936     23.397     25.513     26.982     21.653    
16552.8    5.816e+12  15.8       291.7      1.148e+06  12.70      11.928     15.358     16.611     17.827     19.051     20.247     21.389     22.426     23.067     18.600    
21808.8    5.925e+12  15.8       291.7      1.148e+06  12.70      16.949     20.049     19.953     19.746     19.547     19.375     19.247     19.163     18.850     15.342    
23690.4    5.938e+12  15.8       291.7      1.148e+06  12.70      16.812     19.160     18.899     18.743     18.737     18.828     19.031     19.407     20.038     16.740    
24426.2    5.766e+12  15.8       281.1      1.178e+06  12.70      13.683     15.546     15.655     16.071     16.709     17.478     18.384     19.524     20.820     18.394    
24428.2    6.398e+12  15.8       291.7      1.144e+06  12.70      7.240      10.132     12.055     13.970     15.805     17.430     18.698     19.538     19.027     14.430    
24571.2    6.374e+12  15.8       291.7      1.144e+06  12.70      10.241     13.253     14.376     15.224     15.921     16.484     16.897     17.185     16.599     12.724    
28027.2    6.349e+12  15.8       291.7      1.144e+06  12.70      13.570     16.169     16.289     16.191     16.094     16.035     16.025     16.036     15.709     12.504    
30187.2    6.349e+12  15.8       291.7      1.144e+06  12.70      14.495     17.054     16.944     16.696     16.459     16.249     16.076     15.928     15.482     12.420    
31490.4    6.333e+12  15.8       291.7      1.144e+06  12.70      14.262     16.280     16.130     16.049     16.099     16.209     16.370     16.621     16.833     13.901    
31911.8    6.226e+12  15.8       286.4      1.160e+06  12.70      12.028     13.770     13.913     14.259     14.782     15.383     16.047     16.818     17.714     14.849    
31913.8    6.657e+12  15.8       291.7      1.146e+06  12.70      0.677      0.977      1.178      1.359      1.522      1.657      1.751      1.791      1.702      1.312     
32056.8    6.402e+12  15.8       291.7      1.146e+06  12.70      1.010      1.343      1.478      1.563      1.624      1.669      1.701      1.687      1.613      1.272     
35512.8    5.988e+12  15.8       291.7      1.146e+06  12.70      1.541      1.907      1.969      1.952      1.942      1.935      1.933      1.926      1.876      1.535     
37312.8    5.777e+12  15.8       291.7      1.146e+06  12.70      1.792      2.198      2.251      2.212      2.182      2.155      2.134      2.111      2.046      1.684     
39067.2    5.472e+12  15.8       291.7      1.146e+06  12.70      1.966      2.335      2.345      2.350      2.377      2.418      2.471      2.536      2.575      2.184     
40010.4    5.354e+12  15.8       281.2      1.175e+06  12.70      1.449      1.715      1.764      1.841      1.951      2.082      2.235      2.414      2.580      2.296     
