# ===============================================================================================================================================================================
# TIME     FASTF      PCOOL      TCOOL      GKL        PITCH      Q1         Q2         Q3         Q4         Q5         Q6         Q7         Q8         Q9         Q10       
# (h)      (n/cmWs)   (MPa)      (Celsius)  (kg/s)     (mm)       (kW/m)     (kW/m)     (kW/m)     (kW/m)     (kW/m)     (kW/m)     (kW/m)     (kW/m)     (kW/m)     (kW/m)    
# ===============================================================================================================================================================================
0          4.689e+12  15.8       291.7      1.148e+06  12.70      15.783     24.902     27.526     28.772     29.440     29.520     28.972     27.617     24.129     12.985    
144        4.717e+12  15.8       291.7      1.148e+06  12.70      19.002     27.991     29.318     28.975     28.479     27.776     26.861     25.572     22.658     12.642    
1440       4.745e+12  15.8       291.7      1.148e+06  12.70      20.078     28.029     28.412     27.915     27.401     26.884     26.323     25.554     23.334     13.608    
3045.6     4.775e+12  15.8       291.7      1.148e+06  12.70      20.587     27.164     26.856     26.242     25.809     25.527     25.422     25.543     25.122     16.133    
4900.8     4.574e+12  15.8       273.3      1.198e+06  12.70      13.160     17.017     17.436     18.051     18.961     20.055     21.355     22.998     24.670     17.259    
4904.6     4.571e+12  15.8       283.4      1.171e+06  12.70      6.200      8.335      8.988      9.842      10.946     12.245     13.747     15.507     17.221     12.227    
4906.6     4.752e+12  15.8       291.7      1.148e+06  12.70      20.004     29.361     31.495     31.928     31.232     29.979     28.236     25.994     22.470     12.904    
5049.6     4.763e+12  15.8       291.7      1.148e+06  12.70      22.883     31.686     32.599     31.635     30.346     28.806     27.111     25.176     22.148     13.102    
6465.6     4.804e+12  15.8       291.7      1.148e+06  12.70      22.441     29.503     29.695     29.101     28.393     27.641     26.858     25.968     24.169     15.179    
7291.2     4.819e+12  15.8       291.7      1.148e+06  12.70      22.650     29.048     28.825     28.168     27.527     26.929     26.389     25.890     24.780     16.201    
7928.6     4.724e+12  15.8       283.2      1.172e+06  12.70      19.331     24.672     25.076     25.321     25.679     26.079     26.504     26.947     26.749     18.131    
7930.6     5.214e+12  15.8       291.7      1.142e+06  12.70      11.952     17.981     21.207     23.804     25.863     27.279     27.962     27.333     24.850     15.275    
8073.6     5.208e+12  15.8       291.7      1.142e+06  12.70      15.799     22.009     23.873     24.797     25.255     25.614     25.117     24.302     22.183     13.937    
12969.6    5.327e+12  15.8       291.7      1.142e+06  12.70      18.676     23.986     24.483     23.956     23.449     22.947     22.444     21.788     20.233     13.368    
15621.6    5.367e+12  15.8       291.7      1.142e+06  12.70      18.585     22.412     22.124     21.810     21.736     21.844     22.113     22.498     22.342     15.728    
16407.8    5.229e+12  15.8       281.2      1.172e+06  12.70      15.235     18.299     18.475     18.886     19.598     20.507     21.602     22.894     24.003     17.541    
16409.8    5.767e+12  15.8       291.7      1.148e+06  12.70      8.391      11.664     13.863     16.377     19.087     21.812     24.376     26.581     28.111     22.559    
16552.8    5.783e+12  15.8       291.7      1.148e+06  12.70      12.441     16.019     17.326     18.594     19.871     21.118     22.309     23.391     24.059     19.400    
21808.8    6.020e+12  15.8       291.7      1.148e+06  12.70      17.738     20.983     20.882     20.665     20.456     20.277     20.143     20.055     19.728     16.056    
23690.4    6.048e+12  15.8       291.7      1.148e+06  12.70      17.545     19.995     19.722     19.559     19.553     19.649     19.860     20.252     20.911     17.469    
24426.2    5.878e+12  15.8       281.1      1.178e+06  12.70      14.225     16.162     16.275     16.707     17.371     18.170     19.112     20.297     21.644     19.122    
24428.2    6.482e+12  15.8       291.7      1.144e+06  12.70      7.009      9.809      11.671     13.525     15.301     16.874     18.102     18.915     18.421     13.970    
24571.2    6.465e+12  15.8       291.7      1.144e+06  12.70      10.000     12.942     14.038     14.867     15.547     16.097     16.501     16.782     16.209     12.425    
28027.2    6.453e+12  15.8       291.7      1.144e+06  12.70      13.133     15.648     15.764     15.669     15.575     15.518     15.509     15.519     15.203     12.101    
30187.2    6.454e+12  15.8       291.7      1.144e+06  12.70      13.885     16.336     16.231     15.993     15.766     15.565     15.399     15.257     14.831     11.897    
31490.4    6.439e+12  15.8       291.7      1.144e+06  12.70      13.678     15.614     15.469     15.391     15.439     15.545     15.700     15.940     16.143     13.332    
31911.8    6.332e+12  15.8       286.4      1.160e+06  12.70      11.508     13.174     13.311     13.642     14.142     14.717     15.353     16.090     16.947     14.207    
31913.8    6.663e+12  15.8       291.7      1.146e+06  12.70      1.926      2.780      3.352      3.867      4.330      4.717      4.983      5.096      4.842      3.733     
32056.8    6.576e+12  15.8       291.7      1.146e+06  12.70      2.761      3.672      4.042      4.274      4.443      4.565      4.653      4.613      4.412      3.478     
35512.8    6.397e+12  15.8       291.7      1.146e+06  12.70      3.923      4.853      5.012      4.969      4.943      4.926      4.919      4.902      4.775      3.906     
37312.8    6.323e+12  15.8       291.7      1.146e+06  12.70      4.374      5.365      5.494      5.399      5.326      5.261      5.209      5.154      4.994      4.110     
39067.2    6.229e+12  15.8       291.7      1.146e+06  12.70      4.536      5.386      5.410      5.420      5.482      5.578      5.701      5.849      5.940      5.038     
40010.4    6.065e+12  15.8       281.2      1.175e+06  12.70      3.400      4.023      4.138      4.319      4.577      4.885      5.243      5.664      6.052      5.388     
