# ===============================================================================================================================================================================
# TIME     FASTF      PCOOL      TCOOL      GKL        PITCH      Q1         Q2         Q3         Q4         Q5         Q6         Q7         Q8         Q9         Q10       
# (h)      (n/cmWs)   (MPa)      (Celsius)  (kg/s)     (mm)       (kW/m)     (kW/m)     (kW/m)     (kW/m)     (kW/m)     (kW/m)     (kW/m)     (kW/m)     (kW/m)     (kW/m)    
# ===============================================================================================================================================================================
0          4.121e+12  15.8       291.7      1.148e+06  12.70      17.479     27.578     30.484     31.864     32.603     32.692     32.085     30.585     26.722     14.381    
144        4.150e+12  15.8       291.7      1.148e+06  12.70      21.100     31.080     32.554     32.173     31.623     30.841     29.826     28.395     25.159     14.037    
1440       4.231e+12  15.8       291.7      1.148e+06  12.70      22.016     30.735     31.154     30.609     30.046     29.479     28.863     28.021     25.586     14.922    
3045.6     4.311e+12  15.8       291.7      1.148e+06  12.70      22.354     29.495     29.161     28.494     28.024     27.718     27.604     27.735     27.277     17.518    
4900.8     4.169e+12  15.8       273.3      1.198e+06  12.70      14.104     18.237     18.686     19.346     20.321     21.493     22.887     24.647     26.439     18.497    
4904.6     4.166e+12  15.8       283.4      1.171e+06  12.70      6.634      8.918      9.616      10.529     11.711     13.100     14.708     16.591     18.424     13.081    
4906.6     4.612e+12  15.8       291.7      1.148e+06  12.70      21.009     30.835     33.076     33.531     32.801     31.484     29.654     27.299     23.599     13.552    
5049.6     4.629e+12  15.8       291.7      1.148e+06  12.70      24.013     33.250     34.208     33.197     31.843     30.227     28.449     26.419     23.241     13.748    
6465.6     4.696e+12  15.8       291.7      1.148e+06  12.70      23.419     30.789     30.989     30.369     29.630     28.846     28.029     27.100     25.223     15.841    
7291.2     4.725e+12  15.8       291.7      1.148e+06  12.70      23.573     30.233     30.000     29.317     28.649     28.027     27.465     26.946     25.791     16.861    
7928.6     4.635e+12  15.8       283.2      1.172e+06  12.70      20.113     25.670     26.091     26.346     26.718     27.134     27.576     28.038     27.831     18.865    
7930.6     5.109e+12  15.8       291.7      1.142e+06  12.70      12.778     19.224     22.673     25.450     27.651     29.165     29.896     29.223     26.568     16.331    
8073.6     5.105e+12  15.8       291.7      1.142e+06  12.70      16.815     23.424     25.408     26.391     26.879     27.261     26.732     25.864     23.610     14.833    
12969.6    5.294e+12  15.8       291.7      1.142e+06  12.70      19.554     25.114     25.634     25.082     24.551     24.026     23.499     22.812     21.184     13.996    
15621.6    5.364e+12  15.8       291.7      1.142e+06  12.70      19.291     23.264     22.965     22.639     22.562     22.674     22.954     23.353     23.191     16.325    
16407.8    5.224e+12  15.8       281.2      1.172e+06  12.70      15.831     19.015     19.197     19.625     20.364     21.309     22.446     23.789     24.941     18.227    
16409.8    5.683e+12  15.8       291.7      1.148e+06  12.70      8.167      11.353     13.493     15.939     18.577     21.230     23.725     25.872     27.361     21.957    
16552.8    5.687e+12  15.8       291.7      1.148e+06  12.70      12.130     15.618     16.892     18.128     19.373     20.589     21.750     22.805     23.457     18.914    
21808.8    5.825e+12  15.8       291.7      1.148e+06  12.70      17.350     20.524     20.426     20.214     20.010     19.834     19.704     19.617     19.297     15.705    
23690.4    5.849e+12  15.8       291.7      1.148e+06  12.70      17.177     19.577     19.309     19.150     19.144     19.237     19.444     19.828     20.473     17.103    
24426.2    5.683e+12  15.8       281.1      1.178e+06  12.70      13.925     15.822     15.933     16.356     17.005     17.787     18.710     19.870     21.188     18.720    
24428.2    6.305e+12  15.8       291.7      1.144e+06  12.70      6.932      9.702      11.543     13.377     15.134     16.689     17.904     18.708     18.219     13.818    
24571.2    6.284e+12  15.8       291.7      1.144e+06  12.70      9.869      12.772     13.854     14.671     15.342     15.885     16.284     16.561     15.996     12.262    
28027.2    6.258e+12  15.8       291.7      1.144e+06  12.70      13.074     15.579     15.695     15.600     15.506     15.449     15.440     15.451     15.135     12.048    
30187.2    6.254e+12  15.8       291.7      1.144e+06  12.70      13.929     16.388     16.283     16.045     15.817     15.615     15.449     15.307     14.878     11.936    
31490.4    6.240e+12  15.8       291.7      1.144e+06  12.70      13.736     15.680     15.535     15.457     15.505     15.611     15.767     16.008     16.212     13.389    
31911.8    6.139e+12  15.8       286.4      1.160e+06  12.70      11.564     13.239     13.376     13.709     14.211     14.789     15.428     16.169     17.030     14.276    
31913.8    6.566e+12  15.8       291.7      1.146e+06  12.70      1.552      2.240      2.701      3.116      3.489      3.801      4.015      4.106      3.902      3.008     
32056.8    6.470e+12  15.8       291.7      1.146e+06  12.70      2.239      2.978      3.277      3.466      3.602      3.701      3.772      3.740      3.578      2.820     
35512.8    6.270e+12  15.8       291.7      1.146e+06  12.70      3.199      3.958      4.087      4.052      4.031      4.017      4.011      3.997      3.894      3.185     
37312.8    6.206e+12  15.8       291.7      1.146e+06  12.70      3.574      4.384      4.489      4.410      4.351      4.299      4.256      4.210      4.080      3.358     
39067.2    6.110e+12  15.8       291.7      1.146e+06  12.70      3.729      4.427      4.447      4.456      4.507      4.585      4.687      4.808      4.883      4.142     
40010.4    5.951e+12  15.8       281.2      1.175e+06  12.70      2.790      3.301      3.395      3.543      3.755      4.008      4.301      4.647      4.965      4.420     
