# ===============================================================================================================================================================================
# TIME     FASTF      PCOOL      TCOOL      GKL        PITCH      Q1         Q2         Q3         Q4         Q5         Q6         Q7         Q8         Q9         Q10       
# (h)      (n/cmWs)   (MPa)      (Celsius)  (kg/s)     (mm)       (kW/m)     (kW/m)     (kW/m)     (kW/m)     (kW/m)     (kW/m)     (kW/m)     (kW/m)     (kW/m)     (kW/m)    
# ===============================================================================================================================================================================
0          4.190e+12  15.8       291.7      1.148e+06  12.70      14.745     23.264     25.716     26.880     27.503     27.578     27.066     25.801     22.542     12.131    
144        4.212e+12  15.8       291.7      1.148e+06  12.70      17.979     26.483     27.739     27.414     26.945     26.279     25.414     24.194     21.437     11.961    
1440       4.273e+12  15.8       291.7      1.148e+06  12.70      18.952     26.457     26.818     26.349     25.864     25.376     24.846     24.121     22.025     12.845    
3045.6     4.322e+12  15.8       291.7      1.148e+06  12.70      19.491     25.719     25.427     24.846     24.436     24.169     24.070     24.184     23.785     15.275    
4900.8     4.159e+12  15.8       273.3      1.198e+06  12.70      12.286     15.887     16.278     16.852     17.702     18.723     19.937     21.471     23.031     16.113    
4904.6     4.155e+12  15.8       283.4      1.171e+06  12.70      5.765      7.751      8.357      9.151      10.178     11.386     12.783     14.419     16.012     11.369    
4906.6     4.635e+12  15.8       291.7      1.148e+06  12.70      19.766     29.012     31.120     31.548     30.861     29.622     27.901     25.685     22.203     12.751    
5049.6     4.646e+12  15.8       291.7      1.148e+06  12.70      22.711     31.448     32.354     31.397     30.118     28.589     26.907     24.987     21.981     13.003    
6465.6     4.699e+12  15.8       291.7      1.148e+06  12.70      22.312     29.334     29.525     28.934     28.230     27.483     26.704     25.820     24.031     15.092    
7291.2     4.718e+12  15.8       291.7      1.148e+06  12.70      22.533     28.898     28.676     28.023     27.385     26.790     26.253     25.757     24.652     16.117    
7928.6     4.630e+12  15.8       283.2      1.172e+06  12.70      19.207     24.514     24.915     25.159     25.514     25.912     26.334     26.775     26.577     18.015    
7930.6     5.303e+12  15.8       291.7      1.142e+06  12.70      12.422     18.688     22.041     24.740     26.880     28.351     29.062     28.408     25.827     15.876    
8073.6     5.298e+12  15.8       291.7      1.142e+06  12.70      16.273     22.669     24.588     25.540     26.012     26.382     25.871     25.030     22.849     14.355    
12969.6    5.464e+12  15.8       291.7      1.142e+06  12.70      19.218     24.682     25.193     24.651     24.129     23.613     23.095     22.420     20.820     13.756    
15621.6    5.539e+12  15.8       291.7      1.142e+06  12.70      18.936     22.836     22.543     22.223     22.147     22.257     22.531     22.923     22.764     16.025    
16407.8    5.396e+12  15.8       281.2      1.172e+06  12.70      15.573     18.705     18.885     19.306     20.033     20.962     22.081     23.403     24.536     17.930    
16409.8    5.704e+12  15.8       291.7      1.148e+06  12.70      8.167      11.353     13.493     15.939     18.577     21.229     23.725     25.871     27.360     21.957    
16552.8    5.707e+12  15.8       291.7      1.148e+06  12.70      12.088     15.565     16.834     18.066     19.307     20.519     21.676     22.727     23.377     18.850    
21808.8    5.846e+12  15.8       291.7      1.148e+06  12.70      17.040     20.157     20.060     19.852     19.652     19.479     19.351     19.266     18.952     15.424    
23690.4    5.873e+12  15.8       291.7      1.148e+06  12.70      16.860     19.215     18.952     18.796     18.790     18.882     19.085     19.462     20.095     16.787    
24426.2    5.712e+12  15.8       281.1      1.178e+06  12.70      13.714     15.581     15.690     16.107     16.746     17.517     18.426     19.568     20.866     18.435    
24428.2    6.339e+12  15.8       291.7      1.144e+06  12.70      7.315      10.238     12.181     14.116     15.970     17.612     18.893     19.742     19.226     14.581    
24571.2    6.312e+12  15.8       291.7      1.144e+06  12.70      10.330     13.369     14.501     15.356     16.059     16.627     17.044     17.335     16.743     12.834    
28027.2    6.301e+12  15.8       291.7      1.144e+06  12.70      13.661     16.278     16.399     16.300     16.202     16.143     16.133     16.144     15.815     12.589    
30187.2    6.308e+12  15.8       291.7      1.144e+06  12.70      14.604     17.182     17.072     16.822     16.583     16.371     16.197     16.048     15.599     12.514    
31490.4    6.295e+12  15.8       291.7      1.144e+06  12.70      14.363     16.396     16.244     16.163     16.213     16.324     16.486     16.739     16.952     14.000    
31911.8    6.193e+12  15.8       286.4      1.160e+06  12.70      12.119     13.874     14.018     14.367     14.893     15.499     16.168     16.945     17.847     14.961    
31913.8    6.635e+12  15.8       291.7      1.146e+06  12.70      0.724      1.045      1.260      1.453      1.627      1.772      1.873      1.915      1.820      1.403     
32056.8    6.425e+12  15.8       291.7      1.146e+06  12.70      1.069      1.422      1.565      1.655      1.720      1.767      1.801      1.786      1.708      1.347     
35512.8    6.145e+12  15.8       291.7      1.146e+06  12.70      1.598      1.977      2.041      2.024      2.013      2.006      2.003      1.996      1.945      1.591     
37312.8    5.983e+12  15.8       291.7      1.146e+06  12.70      1.832      2.247      2.301      2.261      2.230      2.203      2.181      2.158      2.091      1.721     
39067.2    5.785e+12  15.8       291.7      1.146e+06  12.70      1.977      2.347      2.358      2.362      2.389      2.431      2.485      2.549      2.589      2.196     
40010.4    5.657e+12  15.8       281.2      1.175e+06  12.70      1.461      1.729      1.778      1.856      1.967      2.099      2.253      2.434      2.601      2.315     
