# ===============================================================================================================================================================================
# TIME     FASTF      PCOOL      TCOOL      GKL        PITCH      Q1         Q2         Q3         Q4         Q5         Q6         Q7         Q8         Q9         Q10       
# (h)      (n/cmWs)   (MPa)      (Celsius)  (kg/s)     (mm)       (kW/m)     (kW/m)     (kW/m)     (kW/m)     (kW/m)     (kW/m)     (kW/m)     (kW/m)     (kW/m)     (kW/m)    
# ===============================================================================================================================================================================
0          4.091e+12  15.8       291.7      1.148e+06  12.70      13.064     20.613     22.785     23.817     24.369     24.436     23.982     22.861     19.973     10.749    
144        4.115e+12  15.8       291.7      1.148e+06  12.70      16.014     23.590     24.708     24.419     24.001     23.408     22.637     21.551     19.095     10.654    
1440       4.173e+12  15.8       291.7      1.148e+06  12.70      16.978     23.701     24.024     23.604     23.170     22.733     22.258     21.608     19.731     11.507    
3045.6     4.212e+12  15.8       291.7      1.148e+06  12.70      17.607     23.232     22.969     22.444     22.073     21.832     21.742     21.846     21.485     13.798    
4900.8     4.046e+12  15.8       273.3      1.198e+06  12.70      11.153     14.422     14.776     15.298     16.070     16.996     18.098     19.491     20.907     14.627    
4904.6     4.052e+12  15.8       283.4      1.171e+06  12.70      5.216      7.012      7.561      8.279      9.208      10.300     11.564     13.045     14.486     10.285    
4906.6     4.497e+12  15.8       291.7      1.148e+06  12.70      19.029     27.930     29.960     30.372     29.711     28.518     26.860     24.728     21.375     12.275    
5049.6     4.512e+12  15.8       291.7      1.148e+06  12.70      21.827     30.223     31.094     30.175     28.945     27.476     25.859     24.014     21.125     12.497    
6465.6     4.567e+12  15.8       291.7      1.148e+06  12.70      21.427     28.171     28.354     27.787     27.111     26.393     25.645     24.796     23.078     14.494    
7291.2     4.587e+12  15.8       291.7      1.148e+06  12.70      21.663     27.783     27.569     26.941     26.328     25.756     25.240     24.763     23.701     15.495    
7928.6     4.502e+12  15.8       283.2      1.172e+06  12.70      18.534     23.654     24.042     24.277     24.620     25.003     25.411     25.836     25.646     17.383    
7930.6     4.964e+12  15.8       291.7      1.142e+06  12.70      13.432     20.208     23.833     26.752     29.066     30.657     31.425     30.718     27.927     17.167    
8073.6     4.963e+12  15.8       291.7      1.142e+06  12.70      17.687     24.639     26.726     27.761     28.273     28.675     28.119     27.206     24.835     15.602    
12969.6    5.152e+12  15.8       291.7      1.142e+06  12.70      20.416     26.221     26.764     26.188     25.633     25.085     24.535     23.817     22.118     14.613    
15621.6    5.215e+12  15.8       291.7      1.142e+06  12.70      20.114     24.256     23.945     23.604     23.524     23.641     23.933     24.349     24.180     17.022    
16407.8    5.075e+12  15.8       281.2      1.172e+06  12.70      16.496     19.814     20.004     20.449     21.220     22.204     23.390     24.789     25.989     18.993    
16409.8    5.566e+12  15.8       291.7      1.148e+06  12.70      8.338      11.590     13.775     16.272     18.965     21.673     24.221     26.412     27.932     22.415    
16552.8    5.570e+12  15.8       291.7      1.148e+06  12.70      12.363     15.918     17.217     18.477     19.746     20.985     22.168     23.244     23.908     19.278    
21808.8    5.694e+12  15.8       291.7      1.148e+06  12.70      17.332     20.503     20.405     20.193     19.989     19.813     19.683     19.596     19.277     15.689    
23690.4    5.714e+12  15.8       291.7      1.148e+06  12.70      17.138     19.532     19.265     19.106     19.100     19.193     19.399     19.782     20.426     17.064    
24426.2    5.551e+12  15.8       281.1      1.178e+06  12.70      13.923     15.819     15.930     16.353     17.002     17.784     18.707     19.867     21.185     18.716    
24428.2    6.145e+12  15.8       291.7      1.144e+06  12.70      8.027      11.234     13.366     15.489     17.524     19.325     20.732     21.663     21.097     16.000    
24571.2    6.122e+12  15.8       291.7      1.144e+06  12.70      11.240     14.547     15.779     16.710     17.474     18.092     18.546     18.862     18.219     13.965    
28027.2    6.148e+12  15.8       291.7      1.144e+06  12.70      14.720     17.540     17.670     17.564     17.458     17.394     17.384     17.395     17.040     13.564    
30187.2    6.172e+12  15.8       291.7      1.144e+06  12.70      15.706     18.479     18.360     18.091     17.834     17.607     17.419     17.259     16.776     13.458    
31490.4    6.166e+12  15.8       291.7      1.144e+06  12.70      15.398     17.577     17.415     17.327     17.381     17.500     17.674     17.945     18.174     15.009    
31911.8    6.063e+12  15.8       286.4      1.160e+06  12.70      13.021     14.906     15.061     15.436     16.001     16.652     17.372     18.206     19.175     16.074    
31913.8    6.436e+12  15.8       291.7      1.146e+06  12.70      1.629      2.351      2.835      3.270      3.662      3.989      4.214      4.309      4.095      3.157     
32056.8    6.345e+12  15.8       291.7      1.146e+06  12.70      2.337      3.109      3.421      3.618      3.761      3.864      3.938      3.905      3.735      2.944     
35512.8    6.130e+12  15.8       291.7      1.146e+06  12.70      3.244      4.014      4.145      4.109      4.088      4.074      4.068      4.054      3.949      3.231     
37312.8    6.029e+12  15.8       291.7      1.146e+06  12.70      3.563      4.371      4.475      4.397      4.338      4.286      4.243      4.198      4.068      3.348     
39067.2    5.917e+12  15.8       291.7      1.146e+06  12.70      3.680      4.370      4.389      4.398      4.448      4.525      4.626      4.746      4.819      4.088     
40010.4    5.755e+12  15.8       281.2      1.175e+06  12.70      2.747      3.250      3.343      3.489      3.697      3.946      4.235      4.575      4.889      4.352     
