# ===============================================================================================================================================================================
# TIME     FASTF      PCOOL      TCOOL      GKL        PITCH      Q1         Q2         Q3         Q4         Q5         Q6         Q7         Q8         Q9         Q10       
# (h)      (n/cmWs)   (MPa)      (Celsius)  (kg/s)     (mm)       (kW/m)     (kW/m)     (kW/m)     (kW/m)     (kW/m)     (kW/m)     (kW/m)     (kW/m)     (kW/m)     (kW/m)    
# ===============================================================================================================================================================================
0          4.408e+12  15.8       291.7      1.148e+06  12.70      10.870     17.151     18.958     19.816     20.276     20.331     19.954     19.021     16.618     8.943     
144        4.419e+12  15.8       291.7      1.148e+06  12.70      13.436     19.791     20.730     20.487     20.137     19.639     18.992     18.081     16.021     8.939     
1440       4.443e+12  15.8       291.7      1.148e+06  12.70      14.401     20.103     20.377     20.021     19.653     19.282     18.879     18.328     16.736     9.760     
3045.6     4.456e+12  15.8       291.7      1.148e+06  12.70      15.121     19.952     19.725     19.274     18.956     18.749     18.672     18.761     18.451     11.849    
4900.8     4.263e+12  15.8       273.3      1.198e+06  12.70      9.560      12.361     12.665     13.113     13.774     14.568     15.513     16.706     17.920     12.537    
4904.6     4.274e+12  15.8       283.4      1.171e+06  12.70      4.463      6.000      6.470      7.084      7.879      8.814      9.896      11.163     12.396     8.802     
4906.6     4.746e+12  15.8       291.7      1.148e+06  12.70      17.454     25.617     27.479     27.857     27.250     26.157     24.636     22.680     19.605     11.259    
5049.6     4.751e+12  15.8       291.7      1.148e+06  12.70      20.162     27.918     28.722     27.873     26.737     25.380     23.887     22.182     19.514     11.543    
6465.6     4.787e+12  15.8       291.7      1.148e+06  12.70      19.989     26.280     26.451     25.922     25.291     24.621     23.924     23.131     21.529     13.521    
7291.2     4.799e+12  15.8       291.7      1.148e+06  12.70      20.301     26.035     25.835     25.247     24.672     24.136     23.652     23.205     22.210     14.521    
7928.6     4.702e+12  15.8       283.2      1.172e+06  12.70      17.323     22.110     22.472     22.691     23.012     23.370     23.751     24.149     23.971     16.248    
7930.6     5.298e+12  15.8       291.7      1.142e+06  12.70      12.271     18.462     21.774     24.441     26.555     28.008     28.710     28.065     25.514     15.684    
8073.6     5.287e+12  15.8       291.7      1.142e+06  12.70      16.130     22.470     24.373     25.317     25.785     26.151     25.644     24.812     22.649     14.229    
12969.6    5.422e+12  15.8       291.7      1.142e+06  12.70      19.207     24.668     25.179     24.638     24.116     23.600     23.082     22.407     20.809     13.748    
15621.6    5.477e+12  15.8       291.7      1.142e+06  12.70      18.989     22.900     22.605     22.284     22.208     22.319     22.594     22.987     22.828     16.069    
16407.8    5.338e+12  15.8       281.2      1.172e+06  12.70      15.581     18.715     18.895     19.316     20.044     20.973     22.093     23.415     24.549     17.940    
16409.8    5.938e+12  15.8       291.7      1.148e+06  12.70      8.158      11.339     13.477     15.920     18.555     21.204     23.697     25.841     27.328     21.931    
16552.8    5.934e+12  15.8       291.7      1.148e+06  12.70      12.027     15.486     16.749     17.975     19.210     20.415     21.566     22.613     23.259     18.755    
21808.8    6.077e+12  15.8       291.7      1.148e+06  12.70      16.838     19.918     19.823     19.617     19.419     19.248     19.122     19.038     18.727     15.242    
23690.4    6.101e+12  15.8       291.7      1.148e+06  12.70      16.646     18.971     18.712     18.558     18.552     18.643     18.843     19.215     19.840     16.574    
24426.2    5.930e+12  15.8       281.1      1.178e+06  12.70      13.588     15.438     15.546     15.959     16.593     17.356     18.256     19.388     20.675     18.266    
24428.2    6.498e+12  15.8       291.7      1.144e+06  12.70      8.174      11.440     13.610     15.773     17.845     19.679     21.111     22.059     21.482     16.292    
24571.2    6.483e+12  15.8       291.7      1.144e+06  12.70      11.383     14.732     15.980     16.923     17.697     18.323     18.783     19.103     18.451     14.143    
28027.2    6.595e+12  15.8       291.7      1.144e+06  12.70      14.702     17.518     17.648     17.542     17.436     17.372     17.362     17.374     17.019     13.547    
30187.2    6.650e+12  15.8       291.7      1.144e+06  12.70      15.620     18.378     18.260     17.993     17.737     17.511     17.324     17.165     16.685     13.385    
31490.4    6.649e+12  15.8       291.7      1.144e+06  12.70      15.259     17.418     17.257     17.171     17.224     17.342     17.515     17.783     18.009     14.873    
31911.8    6.545e+12  15.8       286.4      1.160e+06  12.70      12.919     14.789     14.943     15.315     15.876     16.521     17.235     18.063     19.025     15.948    
31913.8    6.865e+12  15.8       291.7      1.146e+06  12.70      0.543      0.783      0.944      1.089      1.220      1.328      1.403      1.435      1.364      1.051     
32056.8    6.678e+12  15.8       291.7      1.146e+06  12.70      0.805      1.070      1.177      1.245      1.294      1.330      1.356      1.344      1.285      1.013     
35512.8    6.303e+12  15.8       291.7      1.146e+06  12.70      1.198      1.483      1.531      1.518      1.510      1.505      1.503      1.498      1.459      1.193     
37312.8    6.091e+12  15.8       291.7      1.146e+06  12.70      1.371      1.682      1.722      1.692      1.669      1.649      1.633      1.615      1.565      1.288     
39067.2    5.909e+12  15.8       291.7      1.146e+06  12.70      1.480      1.757      1.765      1.768      1.788      1.820      1.860      1.908      1.938      1.644     
40010.4    5.762e+12  15.8       281.2      1.175e+06  12.70      1.085      1.284      1.320      1.378      1.460      1.559      1.673      1.807      1.931      1.719     
