# ===============================================================================================================================================================================
# TIME     FASTF      PCOOL      TCOOL      GKL        PITCH      Q1         Q2         Q3         Q4         Q5         Q6         Q7         Q8         Q9         Q10       
# (h)      (n/cmWs)   (MPa)      (Celsius)  (kg/s)     (mm)       (kW/m)     (kW/m)     (kW/m)     (kW/m)     (kW/m)     (kW/m)     (kW/m)     (kW/m)     (kW/m)     (kW/m)    
# ===============================================================================================================================================================================
0          4.390e+12  15.8       291.7      1.148e+06  12.70      14.987     23.647     26.139     27.322     27.955     28.032     27.511     26.225     22.913     12.331    
144        4.412e+12  15.8       291.7      1.148e+06  12.70      18.210     26.823     28.096     27.766     27.292     26.617     25.741     24.506     21.713     12.115    
1440       4.460e+12  15.8       291.7      1.148e+06  12.70      19.254     26.878     27.245     26.768     26.276     25.780     25.242     24.505     22.376     13.050    
3045.6     4.507e+12  15.8       291.7      1.148e+06  12.70      19.819     26.150     25.854     25.263     24.846     24.574     24.474     24.590     24.184     15.531    
4900.8     4.334e+12  15.8       273.3      1.198e+06  12.70      12.607     16.301     16.703     17.292     18.164     19.211     20.458     22.031     23.632     16.534    
4904.6     4.340e+12  15.8       283.4      1.171e+06  12.70      5.918      7.956      8.579      9.394      10.448     11.688     13.122     14.802     16.437     11.671    
4906.6     5.023e+12  15.8       291.7      1.148e+06  12.70      19.167     28.132     30.177     30.592     29.925     28.724     27.054     24.906     21.530     12.364    
5049.6     5.039e+12  15.8       291.7      1.148e+06  12.70      21.785     30.165     31.034     30.117     28.889     27.423     25.810     23.968     21.085     12.473    
6465.6     5.073e+12  15.8       291.7      1.148e+06  12.70      21.370     28.096     28.278     27.713     27.038     26.322     25.577     24.730     23.017     14.455    
7291.2     5.089e+12  15.8       291.7      1.148e+06  12.70      21.604     27.707     27.494     26.867     26.256     25.685     25.170     24.695     23.636     15.453    
7928.6     4.981e+12  15.8       283.2      1.172e+06  12.70      18.572     23.703     24.091     24.327     24.670     25.055     25.463     25.889     25.699     17.419    
7930.6     5.229e+12  15.8       291.7      1.142e+06  12.70      12.938     19.465     22.958     25.769     27.998     29.530     30.271     29.590     26.901     16.536    
8073.6     5.226e+12  15.8       291.7      1.142e+06  12.70      17.055     23.759     25.771     26.769     27.263     27.651     27.115     26.234     23.947     15.045    
12969.6    5.429e+12  15.8       291.7      1.142e+06  12.70      19.680     25.275     25.799     25.244     24.709     24.181     23.650     22.959     21.321     14.086    
15621.6    5.485e+12  15.8       291.7      1.142e+06  12.70      19.477     23.488     23.186     22.857     22.779     22.893     23.175     23.578     23.414     16.483    
16407.8    5.338e+12  15.8       281.2      1.172e+06  12.70      15.990     19.206     19.390     19.822     20.569     21.523     22.672     24.028     25.192     18.410    
16409.8    5.818e+12  15.8       291.7      1.148e+06  12.70      7.932      11.026     13.105     15.481     18.043     20.619     23.043     25.127     26.573     21.325    
16552.8    5.824e+12  15.8       291.7      1.148e+06  12.70      11.835     15.238     16.481     17.687     18.902     20.088     21.221     22.251     22.886     18.454    
21808.8    5.943e+12  15.8       291.7      1.148e+06  12.70      17.050     20.169     20.072     19.864     19.663     19.491     19.362     19.277     18.963     15.434    
23690.4    5.960e+12  15.8       291.7      1.148e+06  12.70      16.904     19.264     19.001     18.845     18.838     18.931     19.134     19.512     20.147     16.831    
24426.2    5.794e+12  15.8       281.1      1.178e+06  12.70      13.672     15.533     15.642     16.058     16.695     17.463     18.369     19.508     20.802     18.378    
24428.2    6.437e+12  15.8       291.7      1.144e+06  12.70      6.958      9.738      11.586     13.427     15.191     16.752     17.971     18.779     18.288     13.869    
24571.2    6.412e+12  15.8       291.7      1.144e+06  12.70      9.899      12.811     13.896     14.716     15.390     15.934     16.334     16.612     16.046     12.299    
28027.2    6.395e+12  15.8       291.7      1.144e+06  12.70      13.044     15.542     15.658     15.563     15.470     15.413     15.404     15.414     15.100     12.019    
30187.2    6.396e+12  15.8       291.7      1.144e+06  12.70      13.838     16.281     16.177     15.940     15.713     15.513     15.348     15.206     14.781     11.857    
31490.4    6.382e+12  15.8       291.7      1.144e+06  12.70      13.628     15.557     15.413     15.336     15.383     15.489     15.643     15.883     16.085     13.284    
31911.8    6.281e+12  15.8       286.4      1.160e+06  12.70      11.471     13.132     13.269     13.599     14.097     14.671     15.304     16.039     16.893     14.161    
31913.8    6.726e+12  15.8       291.7      1.146e+06  12.70      3.920      5.656      6.820      7.867      8.810      9.596      10.138     10.367     9.851      7.594     
32056.8    6.656e+12  15.8       291.7      1.146e+06  12.70      5.498      7.312      8.047      8.510      8.846      9.089      9.263      9.184      8.785      6.925     
35512.8    6.533e+12  15.8       291.7      1.146e+06  12.70      7.334      9.074      9.371      9.290      9.242      9.209      9.196      9.165      8.928      7.303     
37312.8    6.487e+12  15.8       291.7      1.146e+06  12.70      7.924      9.719      9.952      9.779      9.647      9.530      9.436      9.335      9.047      7.445     
39067.2    6.428e+12  15.8       291.7      1.146e+06  12.70      7.980      9.474      9.517      9.535      9.644      9.813      10.029     10.290     10.450     8.864     
40010.4    6.252e+12  15.8       281.2      1.175e+06  12.70      6.010      7.111      7.315      7.634      8.090      8.635      9.267      10.011     10.698     9.524     
