# ===============================================================================================================================================================================
# TIME     FASTF      PCOOL      TCOOL      GKL        PITCH      Q1         Q2         Q3         Q4         Q5         Q6         Q7         Q8         Q9         Q10       
# (h)      (n/cmWs)   (MPa)      (Celsius)  (kg/s)     (mm)       (kW/m)     (kW/m)     (kW/m)     (kW/m)     (kW/m)     (kW/m)     (kW/m)     (kW/m)     (kW/m)     (kW/m)    
# ===============================================================================================================================================================================
0          4.391e+12  15.8       291.7      1.148e+06  12.70      15.142     23.891     26.408     27.604     28.244     28.321     27.795     26.496     23.149     12.458    
144        4.417e+12  15.8       291.7      1.148e+06  12.70      18.378     27.071     28.355     28.023     27.544     26.863     25.978     24.732     21.914     12.227    
1440       4.494e+12  15.8       291.7      1.148e+06  12.70      19.291     26.931     27.298     26.821     26.328     25.831     25.291     24.553     22.420     13.075    
3045.6     4.555e+12  15.8       291.7      1.148e+06  12.70      19.758     26.070     25.774     25.185     24.770     24.499     24.398     24.514     24.110     15.483    
4900.8     4.381e+12  15.8       273.3      1.198e+06  12.70      12.504     16.169     16.567     17.152     18.016     19.055     20.291     21.852     23.440     16.399    
4904.6     4.376e+12  15.8       283.4      1.171e+06  12.70      5.870      7.890      8.508      9.316      10.362     11.591     13.014     14.680     16.301     11.575    
4906.6     4.863e+12  15.8       291.7      1.148e+06  12.70      19.548     28.691     30.777     31.200     30.520     29.295     27.592     25.402     21.958     12.610    
5049.6     4.878e+12  15.8       291.7      1.148e+06  12.70      22.397     31.013     31.906     30.963     29.701     28.193     26.535     24.641     21.677     12.823    
6465.6     4.930e+12  15.8       291.7      1.148e+06  12.70      21.974     28.889     29.077     28.496     27.802     27.066     26.300     25.428     23.667     14.864    
7291.2     4.946e+12  15.8       291.7      1.148e+06  12.70      22.193     28.463     28.244     27.600     26.972     26.386     25.857     25.369     24.281     15.874    
7928.6     4.843e+12  15.8       283.2      1.172e+06  12.70      18.969     24.211     24.607     24.848     25.198     25.591     26.008     26.443     26.249     17.792    
7930.6     5.354e+12  15.8       291.7      1.142e+06  12.70      12.475     18.768     22.135     24.845     26.995     28.472     29.186     28.529     25.937     15.943    
8073.6     5.348e+12  15.8       291.7      1.142e+06  12.70      16.388     22.829     24.762     25.721     26.196     26.568     26.053     25.207     23.010     14.456    
12969.6    5.499e+12  15.8       291.7      1.142e+06  12.70      19.240     24.710     25.222     24.679     24.156     23.640     23.121     22.445     20.844     13.771    
15621.6    5.557e+12  15.8       291.7      1.142e+06  12.70      19.001     22.915     22.620     22.299     22.223     22.333     22.609     23.002     22.843     16.080    
16407.8    5.406e+12  15.8       281.2      1.172e+06  12.70      15.614     18.755     18.935     19.357     20.086     21.018     22.140     23.464     24.600     17.978    
16409.8    5.870e+12  15.8       291.7      1.148e+06  12.70      7.877      10.949     13.013     15.372     17.916     20.474     22.881     24.951     26.387     21.176    
16552.8    5.871e+12  15.8       291.7      1.148e+06  12.70      11.685     15.046     16.273     17.464     18.664     19.835     20.953     21.970     22.597     18.221    
21808.8    5.960e+12  15.8       291.7      1.148e+06  12.70      16.681     19.733     19.638     19.435     19.238     19.069     18.944     18.860     18.553     15.100    
23690.4    5.968e+12  15.8       291.7      1.148e+06  12.70      16.561     18.873     18.616     18.462     18.456     18.546     18.746     19.116     19.738     16.489    
24426.2    5.796e+12  15.8       281.1      1.178e+06  12.70      13.460     15.293     15.400     15.809     16.437     17.193     18.085     19.206     20.480     18.094    
24428.2    6.429e+12  15.8       291.7      1.144e+06  12.70      7.021      9.827      11.691     13.549     15.328     16.904     18.134     18.949     18.453     13.995    
24571.2    6.401e+12  15.8       291.7      1.144e+06  12.70      9.938      12.861     13.951     14.774     15.450     15.996     16.398     16.677     16.108     12.347    
28027.2    6.364e+12  15.8       291.7      1.144e+06  12.70      13.206     15.736     15.853     15.757     15.662     15.605     15.596     15.606     15.288     12.169    
30187.2    6.363e+12  15.8       291.7      1.144e+06  12.70      14.127     16.621     16.515     16.273     16.042     15.837     15.669     15.524     15.090     12.106    
31490.4    6.348e+12  15.8       291.7      1.144e+06  12.70      13.916     15.885     15.738     15.659     15.708     15.815     15.973     16.218     16.424     13.564    
31911.8    6.244e+12  15.8       286.4      1.160e+06  12.70      11.735     13.435     13.574     13.912     14.421     15.008     15.656     16.408     17.282     14.487    
31913.8    6.695e+12  15.8       291.7      1.146e+06  12.70      1.141      1.647      1.986      2.291      2.566      2.795      2.952      3.019      2.869      2.212     
32056.8    6.571e+12  15.8       291.7      1.146e+06  12.70      1.656      2.203      2.424      2.564      2.665      2.738      2.791      2.767      2.647      2.086     
35512.8    6.373e+12  15.8       291.7      1.146e+06  12.70      2.383      2.949      3.045      3.019      3.003      2.993      2.988      2.978      2.901      2.373     
37312.8    6.285e+12  15.8       291.7      1.146e+06  12.70      2.671      3.276      3.355      3.297      3.252      3.213      3.181      3.147      3.050      2.510     
39067.2    6.175e+12  15.8       291.7      1.146e+06  12.70      2.805      3.331      3.346      3.352      3.391      3.450      3.526      3.617      3.674      3.116     
40010.4    6.016e+12  15.8       281.2      1.175e+06  12.70      2.090      2.473      2.544      2.655      2.813      3.003      3.223      3.482      3.721      3.312     
