# ===============================================================================================================================================================================
# TIME     FASTF      PCOOL      TCOOL      GKL        PITCH      Q1         Q2         Q3         Q4         Q5         Q6         Q7         Q8         Q9         Q10       
# (h)      (n/cmWs)   (MPa)      (Celsius)  (kg/s)     (mm)       (kW/m)     (kW/m)     (kW/m)     (kW/m)     (kW/m)     (kW/m)     (kW/m)     (kW/m)     (kW/m)     (kW/m)    
# ===============================================================================================================================================================================
0          4.311e+12  15.8       291.7      1.148e+06  12.70      10.197     16.089     17.785     18.591     19.023     19.075     18.721     17.846     15.592     8.390     
144        4.309e+12  15.8       291.7      1.148e+06  12.70      12.689     18.692     19.578     19.349     19.018     18.549     17.938     17.077     15.131     8.442     
1440       4.310e+12  15.8       291.7      1.148e+06  12.70      13.726     19.161     19.423     19.083     18.732     18.379     17.995     17.469     15.951     9.302     
3045.6     4.292e+12  15.8       291.7      1.148e+06  12.70      14.554     19.203     18.986     18.552     18.245     18.046     17.972     18.057     17.759     11.404    
4900.8     4.100e+12  15.8       273.3      1.198e+06  12.70      9.196      11.891     12.184     12.614     13.250     14.013     14.922     16.070     17.238     12.059    
4904.6     4.126e+12  15.8       283.4      1.171e+06  12.70      4.282      5.757      6.207      6.797      7.560      8.456      9.494      10.709     11.892     8.444     
4906.6     4.590e+12  15.8       291.7      1.148e+06  12.70      17.599     25.830     27.708     28.088     27.475     26.372     24.839     22.866     19.766     11.351    
5049.6     4.593e+12  15.8       291.7      1.148e+06  12.70      20.385     28.227     29.040     28.181     27.032     25.660     24.150     22.426     19.728     11.670    
6465.6     4.616e+12  15.8       291.7      1.148e+06  12.70      20.295     26.682     26.855     26.318     25.678     24.998     24.290     23.486     21.859     13.728    
7291.2     4.621e+12  15.8       291.7      1.148e+06  12.70      20.640     26.471     26.267     25.669     25.085     24.540     24.048     23.594     22.582     14.764    
7928.6     4.532e+12  15.8       283.2      1.172e+06  12.70      17.585     22.444     22.811     23.034     23.360     23.724     24.111     24.515     24.334     16.495    
7930.6     5.211e+12  15.8       291.7      1.142e+06  12.70      12.380     18.626     21.968     24.658     26.791     28.258     28.966     28.315     25.743     15.825    
8073.6     5.195e+12  15.8       291.7      1.142e+06  12.70      16.276     22.674     24.594     25.546     26.018     26.388     25.876     25.036     22.855     14.359    
12969.6    5.334e+12  15.8       291.7      1.142e+06  12.70      19.488     25.029     25.548     24.998     24.468     23.945     23.420     22.735     21.113     13.949    
15621.6    5.408e+12  15.8       291.7      1.142e+06  12.70      19.214     23.171     22.873     22.549     22.472     22.584     22.862     23.259     23.098     16.260    
16407.8    5.277e+12  15.8       281.2      1.172e+06  12.70      15.745     18.912     19.094     19.519     20.255     21.194     22.326     23.661     24.807     18.129    
16409.8    6.011e+12  15.8       291.7      1.148e+06  12.70      8.169      11.355     13.495     15.941     18.578     21.230     23.725     25.870     27.356     21.953    
16552.8    6.011e+12  15.8       291.7      1.148e+06  12.70      12.016     15.472     16.733     17.957     19.190     20.394     21.543     22.587     23.231     18.731    
21808.8    6.182e+12  15.8       291.7      1.148e+06  12.70      16.761     19.826     19.731     19.526     19.329     19.159     19.033     18.949     18.639     15.170    
23690.4    6.203e+12  15.8       291.7      1.148e+06  12.70      16.564     18.877     18.619     18.466     18.460     18.550     18.750     19.120     19.742     16.492    
24426.2    6.033e+12  15.8       281.1      1.178e+06  12.70      13.542     15.386     15.494     15.905     16.537     17.298     18.195     19.324     20.606     18.205    
24428.2    6.672e+12  15.8       291.7      1.144e+06  12.70      6.999      9.798      11.664     13.525     15.309     16.891     18.129     18.952     18.463     14.008    
24571.2    6.658e+12  15.8       291.7      1.144e+06  12.70      9.988      12.929     14.028     14.861     15.546     16.100     16.508     16.794     16.224     12.439    
28027.2    6.665e+12  15.8       291.7      1.144e+06  12.70      13.045     15.544     15.661     15.567     15.474     15.418     15.409     15.420     15.106     12.026    
30187.2    6.667e+12  15.8       291.7      1.144e+06  12.70      13.749     16.176     16.073     15.837     15.610     15.410     15.245     15.105     14.682     11.779    
31490.4    6.651e+12  15.8       291.7      1.144e+06  12.70      13.531     15.447     15.304     15.225     15.270     15.372     15.522     15.757     15.955     13.176    
31911.8    6.538e+12  15.8       286.4      1.160e+06  12.70      11.385     13.034     13.169     13.495     13.988     14.555     15.181     15.907     16.751     14.042    
31913.8    6.841e+12  15.8       291.7      1.146e+06  12.70      3.849      5.551      6.691      7.718      8.643      9.414      9.946      10.173     9.672      7.462     
32056.8    6.745e+12  15.8       291.7      1.146e+06  12.70      5.398      7.176      7.895      8.348      8.677      8.916      9.088      9.011      8.624      6.804     
35512.8    6.614e+12  15.8       291.7      1.146e+06  12.70      7.287      9.012      9.305      9.223      9.176      9.143      9.130      9.100      8.868      7.259     
37312.8    6.569e+12  15.8       291.7      1.146e+06  12.70      7.935      9.728      9.959      9.785      9.653      9.536      9.442      9.341      9.056      7.457     
39067.2    6.499e+12  15.8       291.7      1.146e+06  12.70      8.013      9.509      9.550      9.567      9.677      9.846      10.064     10.326     10.490     8.903     
40010.4    6.327e+12  15.8       281.2      1.175e+06  12.70      6.034      7.136      7.338      7.658      8.115      8.662      9.297      10.044     10.737     9.564     
