# ===============================================================================================================================================================================
# TIME     FASTF      PCOOL      TCOOL      GKL        PITCH      Q1         Q2         Q3         Q4         Q5         Q6         Q7         Q8         Q9         Q10       
# (h)      (n/cmWs)   (MPa)      (Celsius)  (kg/s)     (mm)       (kW/m)     (kW/m)     (kW/m)     (kW/m)     (kW/m)     (kW/m)     (kW/m)     (kW/m)     (kW/m)     (kW/m)    
# ===============================================================================================================================================================================
0          4.201e+12  15.8       291.7      1.148e+06  12.70      15.993     25.233     27.893     29.157     29.833     29.916     29.361     27.989     24.453     13.159    
144        4.227e+12  15.8       291.7      1.148e+06  12.70      19.388     28.559     29.913     29.563     29.058     28.340     27.407     26.092     23.118     12.898    
1440       4.294e+12  15.8       291.7      1.148e+06  12.70      20.399     28.477     28.865     28.361     27.839     27.314     26.743     25.962     23.706     13.824    
3045.6     4.354e+12  15.8       291.7      1.148e+06  12.70      20.884     27.556     27.243     26.620     26.181     25.894     25.788     25.911     25.483     16.364    
4900.8     4.204e+12  15.8       273.3      1.198e+06  12.70      13.247     17.128     17.550     18.169     19.085     20.186     21.495     23.148     24.830     17.371    
4904.6     4.207e+12  15.8       283.4      1.171e+06  12.70      6.223      8.365      9.020      9.877      10.985     12.288     13.796     15.562     17.281     12.270    
4906.6     4.747e+12  15.8       291.7      1.148e+06  12.70      20.350     29.868     32.039     32.479     31.770     30.494     28.721     26.440     22.856     13.126    
5049.6     4.763e+12  15.8       291.7      1.148e+06  12.70      23.136     32.036     32.959     31.984     30.680     29.123     27.409     25.453     22.391     13.246    
6465.6     4.823e+12  15.8       291.7      1.148e+06  12.70      22.568     29.670     29.863     29.266     28.554     27.798     27.011     26.116     24.307     15.266    
7291.2     4.850e+12  15.8       291.7      1.148e+06  12.70      22.741     29.165     28.941     28.281     27.638     27.037     26.495     25.995     24.881     16.267    
7928.6     4.762e+12  15.8       283.2      1.172e+06  12.70      19.494     24.880     25.288     25.535     25.896     26.299     26.728     27.176     26.976     18.285    
7930.6     5.116e+12  15.8       291.7      1.142e+06  12.70      13.097     19.703     23.239     26.084     28.341     29.892     30.642     29.953     27.232     16.740    
8073.6     5.116e+12  15.8       291.7      1.142e+06  12.70      17.269     24.056     26.094     27.104     27.605     27.997     27.454     26.563     24.248     15.234    
12969.6    5.330e+12  15.8       291.7      1.142e+06  12.70      19.850     25.494     26.022     25.462     24.923     24.390     23.855     23.157     21.505     14.208    
15621.6    5.394e+12  15.8       291.7      1.142e+06  12.70      19.609     23.648     23.344     23.012     22.934     23.048     23.332     23.738     23.573     16.594    
16407.8    5.247e+12  15.8       281.2      1.172e+06  12.70      16.089     19.325     19.511     19.945     20.697     21.657     22.813     24.178     25.348     18.524    
16409.8    5.727e+12  15.8       291.7      1.148e+06  12.70      8.067      11.213     13.327     15.742     18.347     20.966     23.429     25.548     27.016     21.680    
16552.8    5.728e+12  15.8       291.7      1.148e+06  12.70      12.023     15.481     16.743     17.968     19.201     20.406     21.556     22.601     23.245     18.743    
21808.8    5.878e+12  15.8       291.7      1.148e+06  12.70      17.240     20.393     20.295     20.084     19.881     19.706     19.577     19.490     19.172     15.604    
23690.4    5.905e+12  15.8       291.7      1.148e+06  12.70      17.061     19.444     19.178     19.020     19.014     19.107     19.312     19.694     20.334     16.987    
24426.2    5.742e+12  15.8       281.1      1.178e+06  12.70      13.797     15.675     15.785     16.204     16.847     17.623     18.537     19.687     20.993     18.546    
24428.2    6.359e+12  15.8       291.7      1.144e+06  12.70      7.607      10.649     12.676     14.698     16.638     18.358     19.703     20.597     20.066     15.224    
24571.2    6.336e+12  15.8       291.7      1.144e+06  12.70      10.693     13.840     15.018     15.909     16.642     17.235     17.672     17.978     17.368     13.316    
28027.2    6.346e+12  15.8       291.7      1.144e+06  12.70      14.132     16.839     16.965     16.864     16.763     16.702     16.693     16.705     16.365     13.028    
30187.2    6.358e+12  15.8       291.7      1.144e+06  12.70      15.131     17.802     17.688     17.428     17.179     16.959     16.778     16.622     16.158     12.963    
31490.4    6.347e+12  15.8       291.7      1.144e+06  12.70      14.864     16.969     16.811     16.725     16.774     16.886     17.051     17.309     17.527     14.475    
31911.8    6.246e+12  15.8       286.4      1.160e+06  12.70      12.566     14.386     14.535     14.895     15.439     16.064     16.756     17.557     18.489     15.498    
31913.8    6.657e+12  15.8       291.7      1.146e+06  12.70      0.656      0.945      1.140      1.314      1.472      1.603      1.694      1.733      1.647      1.271     
32056.8    6.563e+12  15.8       291.7      1.146e+06  12.70      0.964      1.282      1.410      1.491      1.550      1.593      1.623      1.610      1.541      1.215     
35512.8    6.243e+12  15.8       291.7      1.146e+06  12.70      1.425      1.763      1.820      1.804      1.795      1.788      1.786      1.780      1.735      1.420     
37312.8    6.113e+12  15.8       291.7      1.146e+06  12.70      1.623      1.989      2.037      2.001      1.974      1.950      1.931      1.910      1.852      1.525     
39067.2    5.954e+12  15.8       291.7      1.146e+06  12.70      1.738      2.063      2.072      2.076      2.099      2.136      2.184      2.240      2.276      1.932     
40010.4    5.826e+12  15.8       281.2      1.175e+06  12.70      1.283      1.518      1.561      1.629      1.726      1.842      1.977      2.136      2.283      2.034     
