# ===============================================================================================================================================================================
# TIME     FASTF      PCOOL      TCOOL      GKL        PITCH      Q1         Q2         Q3         Q4         Q5         Q6         Q7         Q8         Q9         Q10       
# (h)      (n/cmWs)   (MPa)      (Celsius)  (kg/s)     (mm)       (kW/m)     (kW/m)     (kW/m)     (kW/m)     (kW/m)     (kW/m)     (kW/m)     (kW/m)     (kW/m)     (kW/m)    
# ===============================================================================================================================================================================
0          4.199e+12  15.8       291.7      1.148e+06  12.70      14.335     22.619     25.003     26.135     26.742     26.816     26.319     25.089     21.920     11.795    
144        4.223e+12  15.8       291.7      1.148e+06  12.70      17.476     25.743     26.964     26.648     26.193     25.546     24.705     23.519     20.839     11.626    
1440       4.299e+12  15.8       291.7      1.148e+06  12.70      18.399     25.685     26.035     25.580     25.110     24.636     24.121     23.417     21.382     12.469    
3045.6     4.358e+12  15.8       291.7      1.148e+06  12.70      18.921     24.966     24.683     24.119     23.721     23.461     23.365     23.476     23.088     14.826    
4900.8     4.195e+12  15.8       273.3      1.198e+06  12.70      11.967     15.474     15.855     16.414     17.242     18.236     19.419     20.912     22.432     15.693    
4904.6     4.195e+12  15.8       283.4      1.171e+06  12.70      5.607      7.537      8.127      8.899      9.898      11.072     12.431     14.022     15.571     11.055    
4906.6     4.651e+12  15.8       291.7      1.148e+06  12.70      19.601     28.768     30.859     31.282     30.600     29.372     27.664     25.467     22.014     12.642    
5049.6     4.669e+12  15.8       291.7      1.148e+06  12.70      22.467     31.110     32.006     31.059     29.793     28.280     26.616     24.717     21.743     12.862    
6465.6     4.727e+12  15.8       291.7      1.148e+06  12.70      22.011     28.938     29.127     28.544     27.850     27.112     26.345     25.472     23.708     14.890    
7291.2     4.747e+12  15.8       291.7      1.148e+06  12.70      22.224     28.502     28.283     27.639     27.010     26.423     25.893     25.404     24.315     15.897    
7928.6     4.656e+12  15.8       283.2      1.172e+06  12.70      18.996     24.244     24.641     24.882     25.233     25.626     26.045     26.481     26.286     17.818    
7930.6     5.133e+12  15.8       291.7      1.142e+06  12.70      13.032     19.606     23.124     25.955     28.201     29.744     30.490     29.804     27.097     16.658    
8073.6     5.128e+12  15.8       291.7      1.142e+06  12.70      17.133     23.866     25.888     26.890     27.387     27.776     27.238     26.354     24.057     15.114    
12969.6    5.311e+12  15.8       291.7      1.142e+06  12.70      19.904     25.564     26.094     25.532     24.991     24.457     23.920     23.221     21.564     14.247    
15621.6    5.369e+12  15.8       291.7      1.142e+06  12.70      19.618     23.659     23.355     23.023     22.945     23.059     23.343     23.749     23.584     16.602    
16407.8    5.227e+12  15.8       281.2      1.172e+06  12.70      16.106     19.345     19.531     19.966     20.719     21.680     22.837     24.203     25.375     18.544    
16409.8    5.704e+12  15.8       291.7      1.148e+06  12.70      8.107      11.269     13.393     15.820     18.438     21.069     23.545     25.674     27.150     21.787    
16552.8    5.704e+12  15.8       291.7      1.148e+06  12.70      12.016     15.471     16.733     17.957     19.190     20.393     21.543     22.587     23.230     18.731    
21808.8    5.813e+12  15.8       291.7      1.148e+06  12.70      16.963     20.065     19.969     19.762     19.562     19.390     19.262     19.177     18.864     15.353    
23690.4    5.834e+12  15.8       291.7      1.148e+06  12.70      16.801     19.147     18.886     18.730     18.724     18.816     19.018     19.394     20.025     16.728    
24426.2    5.665e+12  15.8       281.1      1.178e+06  12.70      13.657     15.516     15.625     16.040     16.677     17.444     18.349     19.487     20.780     18.358    
24428.2    6.283e+12  15.8       291.7      1.144e+06  12.70      6.941      9.717      11.567     13.412     15.182     16.751     17.978     18.794     18.309     13.891    
24571.2    6.256e+12  15.8       291.7      1.144e+06  12.70      9.900      12.814     13.904     14.729     15.408     15.957     16.362     16.645     16.080     12.329    
28027.2    6.237e+12  15.8       291.7      1.144e+06  12.70      13.132     15.647     15.764     15.670     15.577     15.520     15.511     15.522     15.206     12.106    
30187.2    6.242e+12  15.8       291.7      1.144e+06  12.70      13.988     16.457     16.352     16.112     15.882     15.678     15.510     15.367     14.937     11.984    
31490.4    6.223e+12  15.8       291.7      1.144e+06  12.70      13.794     15.748     15.602     15.522     15.567     15.671     15.824     16.064     16.266     13.433    
31911.8    6.124e+12  15.8       286.4      1.160e+06  12.70      11.611     13.293     13.431     13.764     14.266     14.844     15.483     16.224     17.085     14.321    
31913.8    6.586e+12  15.8       291.7      1.146e+06  12.70      2.442      3.521      4.245      4.896      5.482      5.972      6.309      6.453      6.135      4.733     
32056.8    6.498e+12  15.8       291.7      1.146e+06  12.70      3.477      4.622      5.085      5.377      5.589      5.743      5.854      5.804      5.555      4.382     
35512.8    6.320e+12  15.8       291.7      1.146e+06  12.70      4.823      5.964      6.158      6.104      6.072      6.051      6.042      6.022      5.869      4.804     
37312.8    6.250e+12  15.8       291.7      1.146e+06  12.70      5.305      6.504      6.658      6.542      6.454      6.376      6.313      6.246      6.055      4.986     
39067.2    6.167e+12  15.8       291.7      1.146e+06  12.70      5.443      6.459      6.487      6.499      6.574      6.689      6.837      7.015      7.126      6.048     
40010.4    5.997e+12  15.8       281.2      1.175e+06  12.70      4.088      4.834      4.971      5.188      5.498      5.868      6.298      6.804      7.274      6.479     
