# ===============================================================================================================================================================================
# TIME     FASTF      PCOOL      TCOOL      GKL        PITCH      Q1         Q2         Q3         Q4         Q5         Q6         Q7         Q8         Q9         Q10       
# (h)      (n/cmWs)   (MPa)      (Celsius)  (kg/s)     (mm)       (kW/m)     (kW/m)     (kW/m)     (kW/m)     (kW/m)     (kW/m)     (kW/m)     (kW/m)     (kW/m)     (kW/m)    
# ===============================================================================================================================================================================
0          4.782e+12  15.8       291.7      1.148e+06  12.70      15.434     24.352     26.919     28.138     28.791     28.871     28.335     27.011     23.599     12.699    
144        4.810e+12  15.8       291.7      1.148e+06  12.70      18.586     27.378     28.677     28.341     27.857     27.169     26.274     25.014     22.163     12.365    
1440       4.835e+12  15.8       291.7      1.148e+06  12.70      19.654     27.437     27.811     27.325     26.823     26.317     25.767     25.014     22.841     13.320    
3045.6     4.866e+12  15.8       291.7      1.148e+06  12.70      20.167     26.610     26.308     25.707     25.283     25.006     24.903     25.022     24.608     15.803    
4900.8     4.659e+12  15.8       273.3      1.198e+06  12.70      12.906     16.687     17.098     17.702     18.594     19.666     20.941     22.552     24.191     16.924    
4904.6     4.653e+12  15.8       283.4      1.171e+06  12.70      6.079      8.172      8.812      9.649      10.732     12.005     13.478     15.204     16.883     11.987    
4906.6     4.836e+12  15.8       291.7      1.148e+06  12.70      19.675     28.877     30.976     31.401     30.716     29.483     27.768     25.563     22.097     12.690    
5049.6     4.849e+12  15.8       291.7      1.148e+06  12.70      22.495     31.149     32.046     31.098     29.830     28.316     26.650     24.748     21.771     12.878    
6465.6     4.890e+12  15.8       291.7      1.148e+06  12.70      22.065     29.009     29.198     28.614     27.918     27.179     26.409     25.534     23.766     14.926    
7291.2     4.903e+12  15.8       291.7      1.148e+06  12.70      22.279     28.572     28.353     27.707     27.076     26.488     25.957     25.467     24.375     15.937    
7928.6     4.807e+12  15.8       283.2      1.172e+06  12.70      19.028     24.285     24.683     24.924     25.276     25.670     26.089     26.526     26.331     17.848    
7930.6     5.302e+12  15.8       291.7      1.142e+06  12.70      11.773     17.713     20.891     23.449     25.477     26.872     27.546     26.926     24.480     15.049    
8073.6     5.293e+12  15.8       291.7      1.142e+06  12.70      15.572     21.693     23.530     24.441     24.893     25.246     24.757     23.953     21.866     13.738    
12969.6    5.403e+12  15.8       291.7      1.142e+06  12.70      18.415     23.651     24.141     23.622     23.121     22.627     22.131     21.483     19.951     13.181    
15621.6    5.441e+12  15.8       291.7      1.142e+06  12.70      18.352     22.131     21.847     21.537     21.463     21.570     21.836     22.216     22.061     15.530    
16407.8    5.295e+12  15.8       281.2      1.172e+06  12.70      15.047     18.073     18.247     18.653     19.356     20.254     21.335     22.612     23.706     17.324    
16409.8    5.843e+12  15.8       291.7      1.148e+06  12.70      8.291      11.524     13.696     16.179     18.856     21.547     24.079     26.256     27.765     22.281    
16552.8    5.858e+12  15.8       291.7      1.148e+06  12.70      12.296     15.832     17.123     18.375     19.637     20.869     22.045     23.113     23.772     19.168    
21808.8    6.082e+12  15.8       291.7      1.148e+06  12.70      17.571     20.785     20.685     20.471     20.264     20.086     19.953     19.865     19.541     15.904    
23690.4    6.112e+12  15.8       291.7      1.148e+06  12.70      17.390     19.818     19.548     19.386     19.380     19.475     19.684     20.073     20.726     17.315    
24426.2    5.936e+12  15.8       281.1      1.178e+06  12.70      14.099     16.018     16.131     16.559     17.216     18.009     18.943     20.118     21.452     18.953    
24428.2    6.465e+12  15.8       291.7      1.144e+06  12.70      8.059      11.282     13.430     15.573     17.628     19.450     20.874     21.822     21.259     16.129    
24571.2    6.454e+12  15.8       291.7      1.144e+06  12.70      11.239     14.547     15.785     16.721     17.492     18.116     18.575     18.896     18.255     13.996    
28027.2    6.550e+12  15.8       291.7      1.144e+06  12.70      14.558     17.346     17.476     17.372     17.268     17.205     17.196     17.208     16.857     13.420    
30187.2    6.587e+12  15.8       291.7      1.144e+06  12.70      15.491     18.226     18.110     17.843     17.588     17.363     17.177     17.018     16.542     13.272    
31490.4    6.582e+12  15.8       291.7      1.144e+06  12.70      15.174     17.323     17.162     17.074     17.125     17.239     17.407     17.671     17.893     14.777    
31911.8    6.472e+12  15.8       286.4      1.160e+06  12.70      12.855     14.717     14.869     15.238     15.794     16.434     17.141     17.961     18.914     15.855    
31913.8    6.720e+12  15.8       291.7      1.146e+06  12.70      1.175      1.694      2.042      2.355      2.638      2.873      3.036      3.105      2.952      2.277     
32056.8    6.555e+12  15.8       291.7      1.146e+06  12.70      1.703      2.264      2.490      2.634      2.737      2.813      2.867      2.843      2.721      2.146     
35512.8    6.259e+12  15.8       291.7      1.146e+06  12.70      2.415      2.986      3.083      3.056      3.040      3.030      3.025      3.015      2.939      2.406     
37312.8    6.090e+12  15.8       291.7      1.146e+06  12.70      2.687      3.294      3.372      3.313      3.268      3.229      3.197      3.163      3.066      2.525     
39067.2    5.912e+12  15.8       291.7      1.146e+06  12.70      2.818      3.344      3.358      3.364      3.403      3.462      3.539      3.631      3.689      3.131     
40010.4    5.773e+12  15.8       281.2      1.175e+06  12.70      2.092      2.474      2.544      2.655      2.813      3.003      3.223      3.482      3.722      3.316     
