# ===============================================================================================================================================================================
# TIME     FASTF      PCOOL      TCOOL      GKL        PITCH      Q1         Q2         Q3         Q4         Q5         Q6         Q7         Q8         Q9         Q10       
# (h)      (n/cmWs)   (MPa)      (Celsius)  (kg/s)     (mm)       (kW/m)     (kW/m)     (kW/m)     (kW/m)     (kW/m)     (kW/m)     (kW/m)     (kW/m)     (kW/m)     (kW/m)    
# ===============================================================================================================================================================================
0          4.450e+12  15.8       291.7      1.148e+06  12.70      9.438      14.891     16.460     17.206     17.605     17.654     17.326     16.517     14.430     7.765     
144        4.458e+12  15.8       291.7      1.148e+06  12.70      11.733     17.283     18.103     17.891     17.586     17.151     16.587     15.791     13.991     7.806     
1440       4.468e+12  15.8       291.7      1.148e+06  12.70      12.693     17.720     17.961     17.647     17.322     16.996     16.641     16.155     14.751     8.602     
3045.6     4.461e+12  15.8       291.7      1.148e+06  12.70      13.468     17.771     17.569     17.168     16.884     16.700     16.631     16.710     16.434     10.553    
4900.8     4.252e+12  15.8       273.3      1.198e+06  12.70      8.572      11.084     11.356     11.757     12.350     13.062     13.909     14.979     16.067     11.241    
4904.6     4.261e+12  15.8       283.4      1.171e+06  12.70      3.994      5.369      5.789      6.339      7.050      7.886      8.854      9.988      11.091     7.875     
4906.6     4.923e+12  15.8       291.7      1.148e+06  12.70      15.353     22.534     24.171     24.503     23.969     23.006     21.669     19.948     17.243     9.903     
5049.6     4.934e+12  15.8       291.7      1.148e+06  12.70      17.638     24.423     25.126     24.383     23.389     22.202     20.895     19.404     17.070     10.098    
6465.6     4.946e+12  15.8       291.7      1.148e+06  12.70      17.545     23.066     23.216     22.752     22.198     21.610     20.999     20.303     18.897     11.868    
7291.2     4.949e+12  15.8       291.7      1.148e+06  12.70      17.889     22.942     22.766     22.247     21.741     21.268     20.842     20.449     19.572     12.796    
7928.6     4.844e+12  15.8       283.2      1.172e+06  12.70      15.384     19.635     19.956     20.151     20.436     20.755     21.093     21.446     21.289     14.431    
7930.6     5.218e+12  15.8       291.7      1.142e+06  12.70      12.973     19.518     23.019     25.838     28.073     29.610     30.353     29.670     26.975     16.582    
8073.6     5.213e+12  15.8       291.7      1.142e+06  12.70      17.113     23.839     25.858     26.859     27.355     27.744     27.206     26.323     24.029     15.097    
12969.6    5.403e+12  15.8       291.7      1.142e+06  12.70      19.792     25.419     25.946     25.388     24.850     24.319     23.785     23.089     21.442     14.167    
15621.6    5.465e+12  15.8       291.7      1.142e+06  12.70      19.550     23.576     23.273     22.943     22.865     22.979     23.262     23.666     23.502     16.544    
16407.8    5.322e+12  15.8       281.2      1.172e+06  12.70      16.024     19.247     19.431     19.864     20.613     21.569     22.720     24.080     25.245     18.449    
16409.8    5.936e+12  15.8       291.7      1.148e+06  12.70      7.983      11.097     13.189     15.579     18.157     20.748     23.187     25.283     26.736     21.455    
16552.8    5.932e+12  15.8       291.7      1.148e+06  12.70      11.859     15.269     16.515     17.723     18.939     20.127     21.262     22.292     22.927     18.487    
21808.8    6.040e+12  15.8       291.7      1.148e+06  12.70      16.673     19.722     19.627     19.424     19.227     19.058     18.933     18.849     18.542     15.090    
23690.4    6.048e+12  15.8       291.7      1.148e+06  12.70      16.506     18.811     18.554     18.401     18.395     18.485     18.684     19.053     19.673     16.435    
24426.2    5.874e+12  15.8       281.1      1.178e+06  12.70      13.404     15.229     15.336     15.743     16.368     17.122     18.010     19.127     20.396     18.019    
24428.2    6.539e+12  15.8       291.7      1.144e+06  12.70      7.082      9.915      11.802     13.685     15.491     17.092     18.344     19.177     18.682     14.174    
24571.2    6.517e+12  15.8       291.7      1.144e+06  12.70      10.119     13.098     14.212     15.055     15.749     16.311     16.724     17.013     16.436     12.602    
28027.2    6.508e+12  15.8       291.7      1.144e+06  12.70      13.265     15.806     15.925     15.829     15.735     15.678     15.669     15.680     15.361     12.228    
30187.2    6.514e+12  15.8       291.7      1.144e+06  12.70      13.986     16.455     16.350     16.110     15.879     15.676     15.508     15.365     14.935     11.983    
31490.4    6.506e+12  15.8       291.7      1.144e+06  12.70      13.750     15.698     15.552     15.472     15.518     15.621     15.774     16.013     16.214     13.390    
31911.8    6.402e+12  15.8       286.4      1.160e+06  12.70      11.562     13.237     13.375     13.706     14.206     14.782     15.418     16.156     17.013     14.261    
31913.8    6.771e+12  15.8       291.7      1.146e+06  12.70      1.065      1.535      1.851      2.135      2.391      2.604      2.751      2.814      2.675      2.064     
32056.8    6.623e+12  15.8       291.7      1.146e+06  12.70      1.562      2.076      2.284      2.415      2.510      2.580      2.629      2.607      2.495      1.968     
35512.8    6.309e+12  15.8       291.7      1.146e+06  12.70      2.329      2.880      2.974      2.948      2.932      2.922      2.918      2.908      2.834      2.320     
37312.8    6.126e+12  15.8       291.7      1.146e+06  12.70      2.670      3.274      3.352      3.293      3.249      3.209      3.178      3.144      3.048      2.510     
39067.2    5.936e+12  15.8       291.7      1.146e+06  12.70      2.863      3.397      3.412      3.418      3.457      3.518      3.595      3.689      3.748      3.181     
40010.4    5.815e+12  15.8       281.2      1.175e+06  12.70      2.127      2.515      2.587      2.699      2.860      3.053      3.277      3.540      3.785      3.371     
