# ===============================================================================================================================================================================
# TIME     FASTF      PCOOL      TCOOL      GKL        PITCH      Q1         Q2         Q3         Q4         Q5         Q6         Q7         Q8         Q9         Q10       
# (h)      (n/cmWs)   (MPa)      (Celsius)  (kg/s)     (mm)       (kW/m)     (kW/m)     (kW/m)     (kW/m)     (kW/m)     (kW/m)     (kW/m)     (kW/m)     (kW/m)     (kW/m)    
# ===============================================================================================================================================================================
0          4.240e+12  15.8       291.7      1.148e+06  12.70      16.356     25.807     28.528     29.820     30.512     30.597     30.029     28.625     25.010     13.458    
144        4.267e+12  15.8       291.7      1.148e+06  12.70      19.782     29.139     30.521     30.164     29.649     28.917     27.964     26.623     23.588     13.160    
1440       4.330e+12  15.8       291.7      1.148e+06  12.70      20.794     29.029     29.425     28.910     28.379     27.843     27.261     26.465     24.166     14.092    
3045.6     4.395e+12  15.8       291.7      1.148e+06  12.70      21.250     28.039     27.721     27.088     26.640     26.349     26.241     26.366     25.930     16.651    
4900.8     4.242e+12  15.8       273.3      1.198e+06  12.70      13.488     17.441     17.870     18.501     19.433     20.554     21.887     23.570     25.283     17.688    
4904.6     4.238e+12  15.8       283.4      1.171e+06  12.70      6.342      8.526      9.193      10.066     11.196     12.524     14.061     15.861     17.613     12.505    
4906.6     4.693e+12  15.8       291.7      1.148e+06  12.70      20.566     30.185     32.379     32.823     32.108     30.818     29.026     26.721     23.098     13.265    
5049.6     4.708e+12  15.8       291.7      1.148e+06  12.70      23.406     32.410     33.344     32.358     31.038     29.463     27.729     25.750     22.652     13.400    
6465.6     4.772e+12  15.8       291.7      1.148e+06  12.70      22.812     29.991     30.186     29.583     28.863     28.099     27.303     26.398     24.570     15.431    
7291.2     4.802e+12  15.8       291.7      1.148e+06  12.70      22.973     29.462     29.235     28.569     27.919     27.313     26.765     26.260     25.134     16.433    
7928.6     4.712e+12  15.8       283.2      1.172e+06  12.70      19.663     25.095     25.507     25.756     26.120     26.527     26.960     27.411     27.210     18.444    
7930.6     5.127e+12  15.8       291.7      1.142e+06  12.70      12.827     19.297     22.760     25.547     27.757     29.276     30.010     29.335     26.671     16.395    
8073.6     5.126e+12  15.8       291.7      1.142e+06  12.70      16.930     23.585     25.582     26.573     27.063     27.448     26.916     26.042     23.773     14.936    
12969.6    5.315e+12  15.8       291.7      1.142e+06  12.70      19.542     25.098     25.619     25.067     24.536     24.012     23.485     22.798     21.172     13.988    
15621.6    5.376e+12  15.8       291.7      1.142e+06  12.70      19.344     23.328     23.028     22.701     22.624     22.736     23.017     23.417     23.254     16.370    
16407.8    5.232e+12  15.8       281.2      1.172e+06  12.70      15.869     19.060     19.243     19.672     20.413     21.360     22.500     23.846     25.001     18.270    
16409.8    5.717e+12  15.8       291.7      1.148e+06  12.70      8.166      11.351     13.490     15.935     18.572     21.222     23.716     25.861     27.347     21.945    
16552.8    5.722e+12  15.8       291.7      1.148e+06  12.70      12.160     15.657     16.933     18.172     19.419     20.638     21.801     22.857     23.509     18.955    
21808.8    5.888e+12  15.8       291.7      1.148e+06  12.70      17.441     20.631     20.531     20.319     20.113     19.936     19.805     19.717     19.396     15.786    
23690.4    5.919e+12  15.8       291.7      1.148e+06  12.70      17.251     19.660     19.391     19.231     19.225     19.319     19.527     19.912     20.560     17.176    
24426.2    5.752e+12  15.8       281.1      1.178e+06  12.70      13.953     15.852     15.964     16.387     17.038     17.822     18.747     19.909     21.230     18.756    
24428.2    6.356e+12  15.8       291.7      1.144e+06  12.70      7.764      10.870     12.939     15.003     16.983     18.738     20.111     21.024     20.482     15.540    
24571.2    6.336e+12  15.8       291.7      1.144e+06  12.70      10.890     14.095     15.294     16.202     16.949     17.553     17.998     18.309     17.688     13.562    
28027.2    6.360e+12  15.8       291.7      1.144e+06  12.70      14.338     17.084     17.212     17.110     17.007     16.946     16.936     16.948     16.603     13.217    
30187.2    6.376e+12  15.8       291.7      1.144e+06  12.70      15.335     18.042     17.927     17.663     17.410     17.187     17.004     16.846     16.375     13.138    
31490.4    6.371e+12  15.8       291.7      1.144e+06  12.70      15.051     17.182     17.022     16.935     16.985     17.098     17.266     17.527     17.747     14.657    
31911.8    6.267e+12  15.8       286.4      1.160e+06  12.70      12.731     14.576     14.727     15.092     15.642     16.276     16.977     17.789     18.732     15.703    
31913.8    6.657e+12  15.8       291.7      1.146e+06  12.70      0.692      0.999      1.204      1.388      1.555      1.694      1.789      1.830      1.740      1.342     
32056.8    6.573e+12  15.8       291.7      1.146e+06  12.70      1.015      1.349      1.484      1.569      1.631      1.676      1.708      1.694      1.621      1.279     
35512.8    6.275e+12  15.8       291.7      1.146e+06  12.70      1.485      1.837      1.896      1.880      1.870      1.863      1.861      1.854      1.807      1.479     
37312.8    6.163e+12  15.8       291.7      1.146e+06  12.70      1.681      2.061      2.110      2.073      2.045      2.020      2.000      1.979      1.918      1.580     
39067.2    6.015e+12  15.8       291.7      1.146e+06  12.70      1.790      2.124      2.133      2.137      2.162      2.199      2.248      2.307      2.343      1.989     
40010.4    5.873e+12  15.8       281.2      1.175e+06  12.70      1.322      1.563      1.608      1.678      1.778      1.898      2.037      2.200      2.352      2.095     
