# ===============================================================================================================================================================================
# TIME     FASTF      PCOOL      TCOOL      GKL        PITCH      Q1         Q2         Q3         Q4         Q5         Q6         Q7         Q8         Q9         Q10       
# (h)      (n/cmWs)   (MPa)      (Celsius)  (kg/s)     (mm)       (kW/m)     (kW/m)     (kW/m)     (kW/m)     (kW/m)     (kW/m)     (kW/m)     (kW/m)     (kW/m)     (kW/m)    
# ===============================================================================================================================================================================
0          5.024e+12  15.8       291.7      1.148e+06  12.70      14.539     22.941     25.359     26.508     27.123     27.198     26.693     25.446     22.232     11.963    
144        5.049e+12  15.8       291.7      1.148e+06  12.70      17.508     25.790     27.013     26.697     26.241     25.593     24.750     23.562     20.877     11.647    
1440       5.024e+12  15.8       291.7      1.148e+06  12.70      18.701     26.107     26.463     26.001     25.523     25.041     24.518     23.802     21.734     12.674    
3045.6     5.017e+12  15.8       291.7      1.148e+06  12.70      19.358     25.543     25.253     24.676     24.268     24.003     23.904     24.018     23.621     15.169    
4900.8     4.753e+12  15.8       273.3      1.198e+06  12.70      12.519     16.188     16.586     17.172     18.037     19.077     20.315     21.877     23.467     16.417    
4904.6     4.761e+12  15.8       283.4      1.171e+06  12.70      5.896      7.925      8.546      9.358      10.408     11.642     13.071     14.744     16.373     11.625    
4906.6     4.600e+12  15.8       291.7      1.148e+06  12.70      20.300     29.795     31.960     32.398     31.692     30.419     28.651     26.375     22.799     13.093    
5049.6     4.610e+12  15.8       291.7      1.148e+06  12.70      23.230     32.165     33.092     32.113     30.804     29.240     27.520     25.555     22.481     13.299    
6465.6     4.638e+12  15.8       291.7      1.148e+06  12.70      22.847     30.037     30.233     29.628     28.907     28.142     27.345     26.439     24.608     15.455    
7291.2     4.645e+12  15.8       291.7      1.148e+06  12.70      23.094     29.618     29.390     28.721     28.067     27.457     26.907     26.399     25.267     16.520    
7928.6     4.553e+12  15.8       283.2      1.172e+06  12.70      19.721     25.170     25.582     25.832     26.197     26.606     27.040     27.492     27.290     18.499    
7930.6     5.033e+12  15.8       291.7      1.142e+06  12.70      12.144     18.270     21.548     24.187     26.280     27.718     28.413     27.774     25.251     15.523    
8073.6     5.023e+12  15.8       291.7      1.142e+06  12.70      16.095     22.422     24.321     25.263     25.729     26.095     25.589     24.758     22.601     14.199    
12969.6    5.137e+12  15.8       291.7      1.142e+06  12.70      18.994     24.395     24.900     24.364     23.848     23.338     22.826     22.159     20.578     13.596    
15621.6    5.189e+12  15.8       291.7      1.142e+06  12.70      18.900     22.793     22.500     22.180     22.104     22.215     22.488     22.879     22.721     15.994    
16407.8    5.056e+12  15.8       281.2      1.172e+06  12.70      15.465     18.576     18.754     19.172     19.895     20.818     21.929     23.241     24.366     17.806    
16409.8    5.654e+12  15.8       291.7      1.148e+06  12.70      8.653      12.027     14.294     16.885     19.679     22.488     25.131     27.403     28.977     23.254    
16552.8    5.682e+12  15.8       291.7      1.148e+06  12.70      12.803     16.484     17.828     19.132     20.446     21.729     22.953     24.066     24.751     19.958    
21808.8    6.044e+12  15.8       291.7      1.148e+06  12.70      17.938     21.219     21.117     20.897     20.686     20.504     20.369     20.279     19.948     16.235    
23690.4    6.081e+12  15.8       291.7      1.148e+06  12.70      17.720     20.195     19.919     19.755     19.748     19.845     20.058     20.454     21.120     17.643    
24426.2    5.903e+12  15.8       281.1      1.178e+06  12.70      14.370     16.326     16.441     16.877     17.548     18.355     19.307     20.504     21.865     19.317    
24428.2    6.309e+12  15.8       291.7      1.144e+06  12.70      8.508      11.910     14.178     16.439     18.609     20.532     22.036     23.037     22.442     17.027    
24571.2    6.316e+12  15.8       291.7      1.144e+06  12.70      11.813     15.290     16.591     17.575     18.385     19.041     19.523     19.861     19.187     14.711    
28027.2    6.514e+12  15.8       291.7      1.144e+06  12.70      15.031     17.910     18.044     17.936     17.829     17.764     17.755     17.767     17.405     13.856    
30187.2    6.568e+12  15.8       291.7      1.144e+06  12.70      15.945     18.760     18.640     18.366     18.103     17.871     17.680     17.517     17.027     13.661    
31490.4    6.558e+12  15.8       291.7      1.144e+06  12.70      15.614     17.826     17.660     17.570     17.621     17.739     17.912     18.183     18.412     15.205    
31911.8    6.447e+12  15.8       286.4      1.160e+06  12.70      13.246     15.165     15.322     15.701     16.274     16.934     17.663     18.508     19.489     16.337    
31913.8    6.512e+12  15.8       291.7      1.146e+06  12.70      0.949      1.368      1.650      1.902      2.131      2.321      2.452      2.508      2.384      1.839     
32056.8    6.250e+12  15.8       291.7      1.146e+06  12.70      1.394      1.852      2.038      2.155      2.240      2.302      2.346      2.326      2.226      1.756     
35512.8    5.882e+12  15.8       291.7      1.146e+06  12.70      2.027      2.507      2.588      2.565      2.552      2.543      2.539      2.531      2.467      2.019     
37312.8    5.663e+12  15.8       291.7      1.146e+06  12.70      2.290      2.807      2.874      2.823      2.785      2.752      2.724      2.695      2.613      2.152     
39067.2    5.408e+12  15.8       291.7      1.146e+06  12.70      2.443      2.899      2.911      2.916      2.950      3.001      3.068      3.148      3.198      2.714     
40010.4    5.261e+12  15.8       281.2      1.175e+06  12.70      1.804      2.133      2.194      2.289      2.426      2.589      2.779      3.002      3.210      2.859     
