# ===============================================================================================================================================================================
# TIME     FASTF      PCOOL      TCOOL      GKL        PITCH      Q1         Q2         Q3         Q4         Q5         Q6         Q7         Q8         Q9         Q10       
# (h)      (n/cmWs)   (MPa)      (Celsius)  (kg/s)     (mm)       (kW/m)     (kW/m)     (kW/m)     (kW/m)     (kW/m)     (kW/m)     (kW/m)     (kW/m)     (kW/m)     (kW/m)    
# ===============================================================================================================================================================================
0          4.341e+12  15.8       291.7      1.148e+06  12.70      16.723     26.386     29.167     30.488     31.196     31.282     30.702     29.267     25.570     13.760    
144        4.366e+12  15.8       291.7      1.148e+06  12.70      20.158     29.693     31.101     30.737     30.212     29.466     28.496     27.129     24.036     13.410    
1440       4.425e+12  15.8       291.7      1.148e+06  12.70      21.182     29.570     29.974     29.449     28.908     28.363     27.770     26.959     24.616     14.355    
3045.6     4.486e+12  15.8       291.7      1.148e+06  12.70      21.613     28.518     28.195     27.550     27.095     26.799     26.689     26.816     26.373     16.936    
4900.8     4.321e+12  15.8       273.3      1.198e+06  12.70      13.738     17.763     18.200     18.843     19.793     20.934     22.292     24.006     25.751     18.015    
4904.6     4.324e+12  15.8       283.4      1.171e+06  12.70      6.467      8.694      9.374      10.265     11.417     12.771     14.338     16.173     17.960     12.752    
4906.6     4.651e+12  15.8       291.7      1.148e+06  12.70      20.668     30.335     32.539     32.986     32.267     30.971     29.170     26.853     23.213     13.331    
5049.6     4.666e+12  15.8       291.7      1.148e+06  12.70      23.579     32.649     33.589     32.596     31.267     29.680     27.934     25.940     22.819     13.499    
6465.6     4.730e+12  15.8       291.7      1.148e+06  12.70      22.991     30.227     30.423     29.815     29.089     28.319     27.517     26.606     24.763     15.552    
7291.2     4.757e+12  15.8       291.7      1.148e+06  12.70      23.149     29.688     29.460     28.789     28.134     27.523     26.971     26.462     25.327     16.559    
7928.6     4.667e+12  15.8       283.2      1.172e+06  12.70      19.769     25.230     25.644     25.894     26.260     26.670     27.105     27.558     27.356     18.543    
7930.6     5.132e+12  15.8       291.7      1.142e+06  12.70      12.405     18.663     22.011     24.707     26.844     28.313     29.023     28.370     25.793     15.856    
8073.6     5.129e+12  15.8       291.7      1.142e+06  12.70      16.390     22.832     24.766     25.725     26.200     26.572     26.057     25.211     23.014     14.459    
12969.6    5.289e+12  15.8       291.7      1.142e+06  12.70      19.076     24.500     25.008     24.470     23.951     23.439     22.925     22.254     20.667     13.654    
15621.6    5.340e+12  15.8       291.7      1.142e+06  12.70      18.928     22.827     22.533     22.213     22.138     22.248     22.522     22.914     22.755     16.018    
16407.8    5.198e+12  15.8       281.2      1.172e+06  12.70      15.520     18.642     18.821     19.240     19.965     20.891     22.006     23.323     24.452     17.869    
16409.8    5.700e+12  15.8       291.7      1.148e+06  12.70      8.329      11.578     13.760     16.254     18.943     21.647     24.191     26.378     27.894     22.384    
16552.8    5.711e+12  15.8       291.7      1.148e+06  12.70      12.376     15.935     17.234     18.494     19.764     21.004     22.188     23.263     23.926     19.292    
21808.8    5.903e+12  15.8       291.7      1.148e+06  12.70      17.721     20.962     20.862     20.645     20.436     20.257     20.123     20.034     19.707     16.039    
23690.4    5.938e+12  15.8       291.7      1.148e+06  12.70      17.517     19.963     19.691     19.528     19.522     19.618     19.828     20.220     20.878     17.441    
24426.2    5.772e+12  15.8       281.1      1.178e+06  12.70      14.182     16.112     16.225     16.656     17.317     18.114     19.054     20.236     21.578     19.064    
24428.2    6.347e+12  15.8       291.7      1.144e+06  12.70      7.931      11.103     13.217     15.325     17.348     19.140     20.543     21.475     20.921     15.873    
24571.2    6.325e+12  15.8       291.7      1.144e+06  12.70      11.095     14.361     15.583     16.508     17.268     17.884     18.338     18.655     18.022     13.818    
28027.2    6.375e+12  15.8       291.7      1.144e+06  12.70      14.513     17.293     17.422     17.318     17.215     17.152     17.143     17.155     16.805     13.379    
30187.2    6.397e+12  15.8       291.7      1.144e+06  12.70      15.488     18.222     18.105     17.839     17.584     17.359     17.173     17.015     16.539     13.269    
31490.4    6.390e+12  15.8       291.7      1.144e+06  12.70      15.189     17.340     17.179     17.091     17.142     17.256     17.425     17.688     17.911     14.792    
31911.8    6.288e+12  15.8       286.4      1.160e+06  12.70      12.857     14.720     14.872     15.241     15.797     16.437     17.145     17.965     18.918     15.858    
31913.8    6.620e+12  15.8       291.7      1.146e+06  12.70      0.985      1.420      1.712      1.975      2.212      2.409      2.545      2.603      2.475      1.910     
32056.8    6.524e+12  15.8       291.7      1.146e+06  12.70      1.429      1.900      2.090      2.210      2.297      2.360      2.406      2.386      2.283      1.801     
35512.8    6.260e+12  15.8       291.7      1.146e+06  12.70      2.039      2.521      2.603      2.580      2.567      2.558      2.554      2.546      2.481      2.031     
37312.8    6.121e+12  15.8       291.7      1.146e+06  12.70      2.275      2.789      2.855      2.805      2.767      2.734      2.707      2.678      2.596      2.138     
39067.2    5.988e+12  15.8       291.7      1.146e+06  12.70      2.389      2.835      2.847      2.852      2.885      2.935      3.000      3.079      3.127      2.654     
40010.4    5.844e+12  15.8       281.2      1.175e+06  12.70      1.772      2.095      2.155      2.249      2.383      2.543      2.730      2.949      3.153      2.808     
